data_WaaF-1_20250311_Shun-Tokuda
_mpif_audit_creation_date	2025-03-11
_mpif_audit_generator_version	0.0.1
_mpif_audit_publication_doi	''
_mpif_audit_procedure_status	'success'

#Section 1: Author details
_mpif_audit_contact_author_name	'Shun Tokuda'
_mpif_audit_contact_author_email	s.tokuda@fkf.mpg.de
_mpif_audit_contact_author_id_orcid	0000-0002-4515-3073
_mpif_audit_contact_author_address	'Max Planck Institute for Solid State Research, Stuttgart, Germany'
_mpif_audit_contact_author_phone	?

#Section 2: Product General Information
_mpif_product_type	'porous framework material'
_mpif_product_cas	?
_mpif_product_ccdc	'2321951'
_mpif_product_name_common	'WaaF-1'
_mpif_product_name_systematic	''
_mpif_product_formula	'C30 N2 Rh2'
_mpif_product_formula_weight	1200.24
_mpif_product_state	'solid'
_mpif_product_color	'#6891b1'
_mpif_product_handling_atmosphere	'air'
_mpif_product_handling_note
;
This compound is highly stable in the air.
Avoid acidic condition.
;

#Section 3: Synthesis General Information
_mpif_synthesis_performed_date	2024-02-14
_mpif_synthesis_lab_temperature_C	21
_mpif_synthesis_lab_humidity_percent	24
_mpif_synthesis_type	'mix'
_mpif_synthesis_react_temperature_C	100
_mpif_synthesis_react_temperature_controller	'oven'
_mpif_synthesis_react_time	16
_mpif_synthesis_react_time_unit	'h'
_mpif_synthesis_react_atmosphere	'air'
_mpif_synthesis_react_container	'glass vial'
_mpif_synthesis_react_note
;
Any heating method other than oven can be also used.
Reaction is scalable up to 
;
_mpif_synthesis_product_amount	100
_mpif_synthesis_product_amount_unit	'mg'
_mpif_synthesis_product_yield_percent	85
_mpif_synthesis_scale	'milligram'
_mpif_synthesis_safety_note
;
Compound A is toxic.
Compound B is highly flammable!
;

#Section 4: Synthesis Procedure Details
_mpif_substrate_number	2
loop_
_mpif_substrate_id
_mpif_substrate_name
_mpif_substrate_molarity
_mpif_substrate_molarity_unit
_mpif_substrate_amount
_mpif_substrate_amount_unit
_mpif_substrate_supplier
_mpif_substrate_purity_percent
_mpif_substrate_cas
_mpif_substrate_smiles
R1	metal	1	μmol	10	mg	Ardrich	98	12-3456	?
R2	ligand	2	mmol	33	mL	BLDPharm	99	78-9	?

_mpif_solvent_number	2
loop_
_mpif_solvent_id
_mpif_solvent_name
_mpif_solvent_molarity
_mpif_solvent_molarity_unit
_mpif_solvent_amount
_mpif_solvent_amount_unit
_mpif_solvent_supplier
_mpif_solvent_purity_percent
_mpif_solvent_cas
_mpif_solvent_smiles
S1	Methanol	1.0	mol	100	mL	TCI	98	12-3456	?
S2	DMF	2.00	μmol	300	mL	ThermoFischer	99	78-9	?

_mpif_vessel_number	2
loop_
_mpif_vessel_id
_mpif_vessel_volume
_mpif_vessel_volume_unit
_mpif_vessel_material
_mpif_vessel_type
_mpif_vessel_supplier
_mpif_vessel_purpose
_mpif_vessel_note
V1	50	mL	PP	Centrifuge-tube	-	Storing	-
V2	20	mL	glass	Vial	-	Reaction	This can be substituted with any glass vessel

_mpif_hardware_number	3
loop_
_mpif_hardware_id
_mpif_hardware_purpose
_mpif_hardware_general_name
_mpif_hardware_product_name
_mpif_hardware_supplier
_mpif_hardware_note
H1	Stirring/Mixing	ultrasonic bath	YDH12	Merck	-
H2	Heating/Cooling	convection oven	BV438-X	ThermoFischer	-
H3	Drying	vacuum oven	BAR-435458-RTS	ThermoFischer	-

_mpif_procedure_number	7
loop_
_mpif_procedure_id
_mpif_procedure_type
_mpif_procedure_atmosphere
_mpif_procedure_detail
P1	Preparation	Air	Add the reagent R1 and solvent S1 in the vessel V1.
P2	Preparation	Air	Add R2 and briefly sonicate it with H1.
P3	Preparation	Air	Transfer the mixture to the vessel V2. Seal the vessel with a PP cap.
P4	Reaction	Air	Heat the mixture at 100C in the oven H2 for 16 h.
P5	Work-up	Air	Remove the supernatant using a pippette, leaving the dark precipitate.
P6	Work-up	Air	Throughly wash the solid with the solvent S2.
P7	Work-up	Vacuum	Dry the solid in the vacuum oven H3 at 100C for overnight.

_mpif_procedure_full
;
Add the metal salt 10 mg (1 mmol) and methanol 100 mL in the 50 mL PP tube.
Sonicate the mixture until dissolution.
Add the ligand 33 mL (2.00 mmol) to the mixture and briefly sonicate.
Transfer the mixture to the 20 mL glass vial and seal it with a PP screw-cap.
Heat the mixture at 100C in the oven for 16 h.
Remove the supernatant using a pippette, leaving the dark precipitate.
Throughly wash the product solid with DMF (300 mL in total), by repeating dispersion and sedimentation.
Dry the solid in vacuum at 100C for overnight.
100 mg of light blue solid is recovered.
;

#Characterization Information

_mpif_pxrd_data
;
_mpif_pxrd_source	'Cu'
_mpif_pxrd_lambda	1.54056
loop_
_pxrd_2theta
_pxrd_intensity
3	35584
3.02	43105
3.04	46425
3.06	32540
3.08	17243
3.1	8407
3.12	4675
3.14	3807
3.16	3359
3.18	3082
3.2	2878
3.22	2764
3.24	2790
3.26	2639
3.28	2520
3.3	2488
3.32	2321
3.34	2354
3.36	2234
3.38	2227
3.4	2157
3.42	2125
3.44	2091
3.46	2063
3.48	2062
3.5	2051
3.52	1970
3.54	1942
3.56	1999
3.58	1985
3.6	1931
3.62	1830
3.64	1831
3.66	1853
3.68	1784
3.7	1871
3.72	1757
3.74	1690
3.76	1660
3.78	1765
3.8	1602
3.82	1704
3.84	1688
3.86	1593
3.88	1709
3.9	1705
3.92	1651
3.94	1651
3.96	1678
3.98	1682
4	1613
4.02	1695
4.04	1596
4.06	1612
4.08	1657
4.1	1667
4.12	1640
4.14	1608
4.16	1633
4.18	1631
4.2	1724
4.22	1704
4.24	1686
4.26	1800
4.28	1729
4.3	1831
4.32	1809
4.34	1931
4.36	1909
4.38	2068
4.4	2002
4.42	2095
4.44	2258
4.46	2293
4.48	2347
4.5	2438
4.52	2479
4.54	2478
4.56	2485
4.58	2782
4.6	2900
4.62	3055
4.64	3118
4.66	3317
4.68	3405
4.7	3744
4.72	3957
4.74	4260
4.76	4761
4.78	5015
4.8	5464
4.82	6107
4.84	6815
4.86	7947
4.88	8717
4.9	10361
4.92	12617
4.94	15005
4.96	16984
4.98	14773
5	9351
5.02	4530
5.04	2540
5.06	1932
5.08	1766
5.1	1612
5.12	1638
5.14	1613
5.16	1568
5.18	1534
5.2	1524
5.22	1484
5.24	1521
5.26	1502
5.28	1462
5.3	1436
5.32	1528
5.34	1464
5.36	1496
5.38	1485
5.4	1512
5.42	1416
5.44	1535
5.46	1497
5.48	1521
5.5	1557
5.52	1570
5.54	1555
5.56	1633
5.58	1565
5.6	1703
5.62	1744
5.64	1704
5.66	1916
5.68	1940
5.7	2080
5.72	2174
5.74	2341
5.76	2533
5.78	2945
5.8	3224
5.82	3400
5.84	3219
5.86	2552
5.88	1782
5.9	1467
5.92	1380
5.94	1292
5.96	1271
5.98	1241
6	1236
6.02	1257
6.04	1291
6.06	1266
6.08	1278
6.1	1315
6.12	1341
6.14	1279
6.16	1273
6.18	1309
6.2	1232
6.22	1275
6.24	1227
6.26	1326
6.28	1330
6.3	1378
6.32	1361
6.34	1402
6.36	1429
6.38	1388
6.4	1354
6.42	1430
6.44	1387
6.46	1407
6.48	1466
6.5	1442
6.52	1575
6.54	1533
6.56	1560
6.58	1740
6.6	1749
6.62	1772
6.64	1847
6.66	1995
6.68	2059
6.7	2289
6.72	2349
6.74	2558
6.76	2769
6.78	2867
6.8	3215
6.82	3551
6.84	3882
6.86	4330
6.88	4787
6.9	5503
6.92	6253
6.94	7304
6.96	8557
6.98	10268
7	12148
7.02	13394
7.04	12908
7.06	9489
7.08	4963
7.1	3047
7.12	2017
7.14	1640
7.16	1669
7.18	1675
7.2	1622
7.22	1585
7.24	1588
7.26	1583
7.28	1525
7.3	1696
7.32	1759
7.34	1872
7.36	1897
7.38	2015
7.4	2121
7.42	2224
7.44	2519
7.46	2527
7.48	2941
7.5	3259
7.52	3448
7.54	3830
7.56	4368
7.58	4966
7.6	5908
7.62	7054
7.64	8117
7.66	8724
7.68	7938
7.7	5880
7.72	3402
7.74	1923
7.76	1491
7.78	1357
7.8	1296
7.82	1310
7.84	1220
7.86	1264
7.88	1204
7.9	1191
7.92	1118
7.94	1185
7.96	1166
7.98	1136
8	1127
8.02	1107
8.04	1168
8.06	1174
8.08	1139
8.1	1118
8.12	1164
8.14	1140
8.16	1264
8.18	1159
8.2	1170
8.22	1216
8.24	1203
8.26	1212
8.28	1302
8.3	1302
8.32	1338
8.34	1329
8.36	1462
8.38	1550
8.4	1562
8.42	1639
8.44	1704
8.46	1999
8.48	2074
8.5	2260
8.52	2567
8.54	2848
8.56	3422
8.58	3876
8.6	4157
8.62	4213
8.64	3549
8.66	2583
8.68	1857
8.7	1442
8.72	1241
8.74	1221
8.76	1154
8.78	1162
8.8	1236
8.82	1358
8.84	1329
8.86	1357
8.88	1429
8.9	1429
8.92	1534
8.94	1597
8.96	1671
8.98	1867
9	2154
9.02	2214
9.04	2430
9.06	2896
9.08	3208
9.1	3844
9.12	4318
9.14	4407
9.16	4015
9.18	3026
9.2	2024
9.22	1404
9.24	1110
9.26	1099
9.28	987
9.3	1001
9.32	983
9.34	970
9.36	991
9.38	945
9.4	1011
9.42	1017
9.44	996
9.46	1001
9.48	1005
9.5	1023
9.52	991
9.54	1092
9.56	1025
9.58	1003
9.6	963
9.62	1041
9.64	1034
9.66	1041
9.68	1150
9.7	1119
9.72	1179
9.74	1238
9.76	1235
9.78	1325
9.8	1394
9.82	1505
9.84	1643
9.86	1746
9.88	1998
9.9	2347
9.92	2457
9.94	2696
9.96	2539
9.98	2481
10	1969
10.02	1448
10.04	1200
10.06	1024
10.08	1023
10.1	1014
10.12	1014
10.14	1023
10.16	1020
10.18	1013
10.2	1027
10.22	1050
10.24	1110
10.26	1179
10.28	1136
10.3	1136
10.32	1199
10.34	1300
10.36	1363
10.38	1501
10.4	1493
10.42	1508
10.44	1375
10.46	1290
10.48	1136
10.5	1054
10.52	1067
10.54	1005
10.56	1037
10.58	1003
10.6	951
10.62	1017
10.64	953
10.66	999
10.68	931
10.7	943
10.72	928
10.74	971
10.76	955
10.78	1018
10.8	908
10.82	1058
10.84	1071
10.86	1046
10.88	1088
10.9	1096
10.92	1129
10.94	1233
10.96	1264
10.98	1287
11	1483
11.02	1558
11.04	1707
11.06	1930
11.08	2101
11.1	2313
11.12	2480
11.14	2552
11.16	2366
11.18	1890
11.2	1432
11.22	1133
11.24	1048
11.26	1036
11.28	1047
11.3	1008
11.32	977
11.34	973
11.36	1033
11.38	1067
11.4	1030
11.42	1085
11.44	1070
11.46	1111
11.48	1224
11.5	1274
11.52	1360
11.54	1366
11.56	1365
11.58	1242
11.6	1206
11.62	1065
11.64	1038
11.66	1090
11.68	1118
11.7	1118
11.72	1070
11.74	1006
11.76	1047
11.78	1017
11.8	1005
11.82	1024
11.84	1059
11.86	1127
11.88	1189
11.9	1189
11.92	1239
11.94	1322
11.96	1323
11.98	1382
12	1497
12.02	1610
12.04	1819
12.06	2042
12.08	2322
12.1	2661
12.12	3175
12.14	3612
12.16	4051
12.18	4629
12.2	4953
12.22	4722
12.24	3894
12.26	2884
12.28	1963
12.3	1442
12.32	1346
12.34	1188
12.36	1231
12.38	1276
12.4	1422
12.42	1382
12.44	1515
12.46	1688
12.48	1892
12.5	2033
12.52	2256
12.54	2574
12.56	2832
12.58	2900
12.6	2700
12.62	2307
12.64	1764
12.66	1373
12.68	1168
12.7	1092
12.72	1066
12.74	1047
12.76	1048
12.78	1042
12.8	994
12.82	1015
12.84	1098
12.86	1078
12.88	1082
12.9	1098
12.92	1224
12.94	1230
12.96	1228
12.98	1316
13	1486
13.02	1569
13.04	1744
13.06	2090
13.08	2330
13.1	2674
13.12	3112
13.14	3586
13.16	4031
13.18	4194
13.2	4236
13.22	3681
13.24	2794
13.26	2126
13.28	1626
13.3	1427
13.32	1310
13.34	1374
13.36	1327
13.38	1491
13.4	1610
13.42	1811
13.44	2040
13.46	2304
13.48	2557
13.5	2897
13.52	3197
13.54	3346
13.56	2916
13.58	2542
13.6	2042
13.62	1503
13.64	1136
13.66	1046
13.68	989
13.7	981
13.72	987
13.74	998
13.76	1007
13.78	922
13.8	1003
13.82	937
13.84	967
13.86	875
13.88	994
13.9	961
13.92	1011
13.94	1013
13.96	998
13.98	1060
14	1046
14.02	1059
14.04	1075
14.06	1119
14.08	1146
14.1	1057
14.12	1119
14.14	1147
14.16	1126
14.18	1098
14.2	1089
14.22	1204
14.24	1217
14.26	1330
14.28	1336
14.3	1481
14.32	1655
14.34	1843
14.36	2092
14.38	2370
14.4	2627
14.42	2788
14.44	2830
14.46	2583
14.48	2221
14.5	1842
14.52	1383
14.54	1211
14.56	1201
14.58	1146
14.6	1059
14.62	1182
14.64	1166
14.66	1206
14.68	1302
14.7	1330
14.72	1433
14.74	1569
14.76	1668
14.78	1896
14.8	2273
14.82	2666
14.84	3122
14.86	3737
14.88	4646
14.9	5615
14.92	6670
14.94	7496
14.96	7901
14.98	7575
15	6598
15.02	4950
15.04	3517
15.06	2283
15.08	1655
15.1	1339
15.12	1215
15.14	1174
15.16	1205
15.18	1245
15.2	1314
15.22	1294
15.24	1393
15.26	1390
15.28	1425
15.3	1336
15.32	1241
15.34	1141
15.36	1026
15.38	1021
15.4	1015
15.42	928
15.44	959
15.46	962
15.48	988
15.5	896
15.52	862
15.54	880
15.56	914
15.58	905
15.6	880
15.62	927
15.64	898
15.66	893
15.68	978
15.7	889
15.72	837
15.74	935
15.76	921
15.78	928
15.8	963
15.82	893
15.84	882
15.86	913
15.88	914
15.9	990
15.92	1043
15.94	1025
15.96	1132
15.98	1103
16	1253
16.02	1294
16.04	1307
16.06	1353
16.08	1375
16.1	1446
16.12	1339
16.14	1114
16.16	1017
16.18	974
16.2	1010
16.22	932
16.24	930
16.26	868
16.28	886
16.3	880
16.32	884
16.34	895
16.36	877
16.38	832
16.4	841
16.42	862
16.44	770
16.46	862
16.48	874
16.5	827
16.52	848
16.54	874
16.56	886
16.58	851
16.6	855
16.62	916
16.64	907
16.66	860
16.68	951
16.7	928
16.72	1017
16.74	1012
16.76	1028
16.78	1164
16.8	1192
16.82	1292
16.84	1233
16.86	1344
16.88	1266
16.9	1155
16.92	1030
16.94	960
16.96	909
16.98	882
17	836
17.02	911
17.04	966
17.06	899
17.08	939
17.1	858
17.12	875
17.14	828
17.16	880
17.18	849
17.2	834
17.22	855
17.24	855
17.26	918
17.28	983
17.3	896
17.32	929
17.34	1009
17.36	1010
17.38	1048
17.4	1089
17.42	1220
17.44	1276
17.46	1484
17.48	1639
17.5	1810
17.52	2119
17.54	2232
17.56	2373
17.58	2404
17.6	2260
17.62	1986
17.64	1728
17.66	1391
17.68	1181
17.7	1046
17.72	1017
17.74	946
17.76	952
17.78	961
17.8	1059
17.82	1133
17.84	1212
17.86	1298
17.88	1405
17.9	1545
17.92	1844
17.94	2051
17.96	2296
17.98	2510
18	2805
18.02	2770
18.04	2774
18.06	2553
18.08	2147
18.1	1860
18.12	1674
18.14	1670
18.16	1847
18.18	2109
18.2	2324
18.22	2667
18.24	3007
18.26	3312
18.28	3320
18.3	3054
18.32	2698
18.34	2213
18.36	1698
18.38	1409
18.4	1141
18.42	1063
18.44	933
18.46	967
18.48	918
18.5	972
18.52	932
18.54	907
18.56	908
18.58	911
18.6	983
18.62	957
18.64	865
18.66	885
18.68	929
18.7	815
18.72	861
18.74	804
18.76	886
18.78	967
18.8	835
18.82	944
18.84	965
18.86	1000
18.88	1031
18.9	1033
18.92	1104
18.94	1093
18.96	1095
18.98	1104
19	1081
19.02	976
19.04	983
19.06	932
19.08	943
19.1	917
19.12	916
19.14	875
19.16	892
19.18	956
19.2	946
19.22	975
19.24	989
19.26	1052
19.28	1150
19.3	1215
19.32	1256
19.34	1336
19.36	1409
19.38	1398
19.4	1386
19.42	1284
19.44	1082
19.46	1051
19.48	1045
19.5	977
19.52	950
19.54	979
19.56	1049
19.58	1017
19.6	1141
19.62	1015
19.64	1106
19.66	1017
19.68	999
19.7	995
19.72	920
19.74	874
19.76	894
19.78	884
19.8	884
19.82	874
19.84	887
19.86	911
19.88	973
19.9	1009
19.92	956
19.94	1055
19.96	1113
19.98	1111
20	1160
20.02	1146
20.04	1210
20.06	1172
20.08	1141
20.1	1079
20.12	1118
20.14	1216
20.16	1237
20.18	1377
20.2	1459
20.22	1418
20.24	1535
20.26	1572
20.28	1545
20.3	1475
20.32	1343
20.34	1256
20.36	1183
20.38	1254
20.4	1349
20.42	1378
20.44	1554
20.46	1550
20.48	1870
20.5	2250
20.52	2786
20.54	3321
20.56	4012
20.58	4867
20.6	5521
20.62	5699
20.64	5877
20.66	5571
20.68	4858
20.7	3674
20.72	3180
20.74	2411
20.76	1945
20.78	1838
20.8	1754
20.82	1850
20.84	1876
20.86	1909
20.88	1909
20.9	1750
20.92	1592
20.94	1501
20.96	1334
20.98	1259
21	1098
21.02	1126
21.04	1104
21.06	1103
21.08	1238
21.1	1298
21.12	1475
21.14	1448
21.16	1748
21.18	1908
21.2	1848
21.22	2110
21.24	2190
21.26	2176
21.28	2063
21.3	1855
21.32	1657
21.34	1602
21.36	1543
21.38	1552
21.4	1707
21.42	1831
21.44	1827
21.46	1899
21.48	1894
21.5	1827
21.52	1648
21.54	1570
21.56	1354
21.58	1289
21.6	1319
21.62	1284
21.64	1379
21.66	1638
21.68	1790
21.7	2056
21.72	2462
21.74	2964
21.76	3484
21.78	4018
21.8	4404
21.82	4650
21.84	4885
21.86	4544
21.88	4148
21.9	3139
21.92	2667
21.94	2157
21.96	1744
21.98	1579
22	1615
22.02	1487
22.04	1577
22.06	1597
22.08	1411
22.1	1418
22.12	1332
22.14	1184
22.16	1165
22.18	1125
22.2	1144
22.22	1230
22.24	1238
22.26	1278
22.28	1482
22.3	1661
22.32	1981
22.34	2075
22.36	2228
22.38	2546
22.4	2636
22.42	2666
22.44	2477
22.46	2274
22.48	1908
22.5	1615
22.52	1441
22.54	1281
22.56	1207
22.58	1160
22.6	1198
22.62	1097
22.64	1173
22.66	1139
22.68	1102
22.7	1253
22.72	1204
22.74	1245
22.76	1262
22.78	1471
22.8	1472
22.82	1714
22.84	2131
22.86	2480
22.88	2947
22.9	3568
22.92	3986
22.94	4563
22.96	4963
22.98	4831
23	4587
23.02	3919
23.04	3446
23.06	2906
23.08	2482
23.1	2249
23.12	2110
23.14	2229
23.16	2253
23.18	2225
23.2	2181
23.22	2054
23.24	1743
23.26	1517
23.28	1394
23.3	1271
23.32	1225
23.34	1086
23.36	1090
23.38	1173
23.4	1172
23.42	1226
23.44	1289
23.46	1385
23.48	1455
23.5	1526
23.52	1542
23.54	1614
23.56	1523
23.58	1491
23.6	1470
23.62	1378
23.64	1380
23.66	1416
23.68	1486
23.7	1540
23.72	1515
23.74	1564
23.76	1486
23.78	1338
23.8	1317
23.82	1140
23.84	1174
23.86	1149
23.88	1150
23.9	1158
23.92	1162
23.94	1354
23.96	1499
23.98	1684
24	1823
24.02	1900
24.04	2040
24.06	2175
24.08	2038
24.1	1953
24.12	1654
24.14	1448
24.16	1396
24.18	1185
24.2	1118
24.22	1087
24.24	1134
24.26	1082
24.28	1039
24.3	941
24.32	1003
24.34	957
24.36	861
24.38	885
24.4	899
24.42	915
24.44	893
24.46	919
24.48	855
24.5	835
24.52	867
24.54	872
24.56	917
24.58	892
24.6	835
24.62	833
24.64	899
24.66	853
24.68	855
24.7	920
24.72	838
24.74	926
24.76	944
24.78	994
24.8	949
24.82	930
24.84	889
24.86	892
24.88	915
24.9	911
24.92	927
24.94	972
24.96	973
24.98	984
25	1041
25.02	1141
25.04	1204
25.06	1159
25.08	1261
25.1	1316
25.12	1271
25.14	1265
25.16	1079
25.18	1096
25.2	1008
25.22	1020
25.24	1009
25.26	990
25.28	959
25.3	974
25.32	1028
25.34	1004
25.36	976
25.38	888
25.4	907
25.42	874
25.44	937
25.46	893
25.48	851
25.5	890
25.52	873
25.54	889
25.56	898
25.58	854
25.6	914
25.62	1014
25.64	958
25.66	966
25.68	1111
25.7	1145
25.72	1274
25.74	1320
25.76	1365
25.78	1506
25.8	1415
25.82	1369
25.84	1323
25.86	1268
25.88	1203
25.9	1152
25.92	991
25.94	957
25.96	1015
25.98	993
26	992
26.02	1104
26.04	1173
26.06	1237
26.08	1258
26.1	1307
26.12	1336
26.14	1338
26.16	1373
26.18	1388
26.2	1350
26.22	1469
26.24	1563
26.26	1593
26.28	1597
26.3	1627
26.32	1595
26.34	1467
26.36	1317
26.38	1196
26.4	1007
26.42	1041
26.44	963
26.46	942
26.48	994
26.5	931
26.52	864
26.54	928
26.56	938
26.58	1043
26.6	990
26.62	936
26.64	1005
26.66	981
26.68	979
26.7	1025
26.72	1102
26.74	1052
26.76	1062
26.78	1015
26.8	1071
26.82	981
26.84	1019
26.86	988
26.88	984
26.9	890
26.92	873
26.94	904
26.96	898
26.98	922
27	842
27.02	846
27.04	968
27.06	846
27.08	914
27.1	886
27.12	879
27.14	904
27.16	824
27.18	884
27.2	887
27.22	907
27.24	928
27.26	883
27.28	911
27.3	907
27.32	893
27.34	869
27.36	808
27.38	831
27.4	849
27.42	877
27.44	851
27.46	876
27.48	822
27.5	858
27.52	915
27.54	949
27.56	922
27.58	1000
27.6	1030
27.62	1166
27.64	1283
27.66	1377
27.68	1473
27.7	1587
27.72	1624
27.74	1605
27.76	1533
27.78	1422
27.8	1369
27.82	1203
27.84	1143
27.86	1021
27.88	986
27.9	938
27.92	983
27.94	985
27.96	1089
27.98	1130
28	1152
28.02	1136
28.04	1140
28.06	1183
28.08	1198
28.1	1297
28.12	1337
28.14	1445
28.16	1502
28.18	1528
28.2	1575
28.22	1402
28.24	1338
28.26	1234
28.28	1177
28.3	1091
28.32	958
28.34	934
28.36	921
28.38	812
28.4	858
28.42	933
28.44	929
28.46	886
28.48	921
28.5	922
28.52	954
28.54	961
28.56	1050
28.58	1049
28.6	1128
28.62	1099
28.64	1166
28.66	1091
28.68	1154
28.7	1060
28.72	1077
28.74	976
28.76	1049
28.78	1002
28.8	996
28.82	1029
28.84	1071
28.86	1112
28.88	1105
28.9	1172
28.92	1166
28.94	1228
28.96	1245
28.98	1142
29	1046
29.02	1042
29.04	1144
29.06	1091
29.08	1061
29.1	1024
29.12	1014
29.14	1008
29.16	1005
29.18	953
29.2	922
29.22	888
29.24	905
29.26	938
29.28	906
29.3	996
29.32	966
29.34	1017
29.36	1062
29.38	1066
29.4	1155
29.42	1131
29.44	1197
29.46	1316
29.48	1363
29.5	1427
29.52	1633
29.54	1611
29.56	1477
29.58	1435
29.6	1337
29.62	1256
29.64	1217
29.66	1161
29.68	1034
29.7	1074
29.72	1145
29.74	1160
29.76	1196
29.78	1230
29.8	1293
29.82	1329
29.84	1304
29.86	1247
29.88	1202
29.9	1222
29.92	1216
29.94	1195
29.96	1174
29.98	1203
30	1081
;

_mpif_tga_data
;
loop_
_tga_temperature_celcius
_tga_weight_percent31.281	100
31.298	100.002269
31.315001	100.006808
31.326	100.011347
31.316	100.013617
31.316999	100.018155
31.320999	100.018155
31.347	100.018155
31.353001	100.011347
31.361	100.006808
31.368	100.004539
31.395	100.002269
31.402	99.993192
31.410999	99.993192
31.423	99.995461
31.434	100
31.445999	100
31.448	100.002269
31.452999	100.002269
31.458	100.002269
31.469999	100
31.479	100.013617
31.490999	100.013617
31.507	100.011347
31.514999	100.013617
31.521999	100.013617
31.523001	100.018155
31.525999	100.018155
31.531	100.020425
31.535999	100.022694
31.549	100.022694
31.572001	100.020425
31.583	100.018155
31.591999	100.020425
31.601	100.027233
31.610001	100.027233
31.615999	100.027233
31.629999	100.024964
31.646999	100.020425
31.671	100.020425
31.681	100.020425
31.722	100.018155
31.735001	100.022694
31.747	100.029503
31.757999	100.029503
31.782	100.022694
31.797001	100.018155
31.809999	100.018155
31.811001	100.027233
31.822001	100.029503
31.841	100.036311
31.886	100.027233
31.892	100.020425
31.903999	100.015886
31.927	100.015886
31.947001	100.020425
31.969999	100.018155
31.988001	100.011347
32.008999	100.009078
31.997	100.013617
32.012001	100.022694
32.095001	100.015886
32.116001	100.015886
32.132999	100.015886
32.146	100.018155
32.166	100.018155
32.188	100.018155
32.212002	100.020425
32.241001	100.024964
32.261002	100.027233
32.271	100.036311
32.32	100.027233
32.34	100.022694
32.355999	100.018155
32.383999	100.020425
32.412998	100.022694
32.439999	100.027233
32.450001	100.022694
32.458	100.015886
32.476002	100.015886
32.500999	100.018155
32.584	100.024964
32.609001	100.022694
32.626999	100.022694
32.653	100.020425
32.681	100.015886
32.713001	100.011347
32.734001	100.013617
32.764	100.015886
32.789001	100.015886
32.820999	100.015886
32.897999	100.011347
32.937	100.022694
32.967999	100.027233
32.998001	100.022694
33.028999	100.020425
33.063	100.013617
33.098999	100.018155
33.130001	100.020425
33.168999	100.024964
33.207001	100.027233
33.311001	100.031772
33.341999	100.03858
33.376999	100.045389
33.419998	100.043119
33.467999	100.04085
33.516998	100.034041
33.564999	100.031772
33.605	100.020425
33.639999	100.011347
33.674999	100.004539
33.789001	100.011347
33.834	100.013617
33.880001	100.020425
33.925999	100.020425
33.971001	100.027233
34.025002	100.029503
34.074001	100.022694
34.115002	100.013617
34.153	100.002269
34.199001	100.002269
34.339001	99.993192
34.384998	99.988653
34.424999	99.993192
34.471001	99.995461
34.515999	99.997731
34.569	99.993192
34.623001	99.984114
34.662998	99.988653
34.708	99.995461
34.751999	100.006808
34.935001	100.009078
34.984001	100.002269
35.028	100.004539
35.073002	100.002269
35.126999	100.002269
35.182999	100
35.241001	100.002269
35.290001	100.004539
35.341	100.002269
35.388	99.995461
35.535	99.990922
35.591999	99.993192
35.643002	99.993192
35.691002	99.997731
35.740002	100
35.792999	99.997731
35.846001	100
35.902	99.997731
35.952999	99.990922
36.007999	99.979575
36.147999	99.96142
36.226002	99.963689
36.292999	99.963689
36.349998	99.968228
36.403999	99.965959
36.464001	99.968228
36.526001	99.968228
36.592999	99.972767
36.655998	99.972767
36.719002	99.972767
36.897999	99.968228
36.948002	99.965959
36.993	99.95915
37.056	99.952342
37.127998	99.950073
37.195999	99.945534
37.257	99.943264
37.312	99.947803
37.369999	99.950073
37.432999	99.954611
37.613998	99.952342
37.676998	99.954611
37.745998	99.947803
37.810001	99.940995
37.875	99.936456
37.933998	99.940995
37.998001	99.943264
38.063	99.950073
38.127998	99.947803
38.195	99.950073
38.388	99.954611
38.446999	99.956881
38.508999	99.954611
38.575001	99.954611
38.643002	99.954611
38.708	99.954611
38.766998	99.945534
38.82	99.945534
38.881001	99.947803
38.942001	99.952342
39.132999	99.947803
39.194	99.938725
39.257999	99.929648
39.323002	99.925109
39.393002	99.92284
39.469002	99.927378
39.532001	99.929648
39.585999	99.929648
39.640999	99.925109
39.702	99.918301
39.903	99.904684
39.965	99.895606
40.033001	99.891068
40.091999	99.891068
40.166	99.904684
40.235001	99.913762
40.310001	99.925109
40.369999	99.911492
40.433998	99.902415
40.507	99.900145
40.722	99.911492
40.785999	99.906954
40.848	99.904684
40.918999	99.893337
40.991001	99.891068
41.068001	99.886529
41.131001	99.88199
41.194	99.872912
41.252998	99.866104
41.317001	99.866104
41.507999	99.859296
41.582001	99.850218
41.661999	99.84114
41.731998	99.84114
41.797001	99.845679
41.862999	99.850218
41.938999	99.850218
42.02	99.854757
42.084999	99.854757
42.145	99.861565
42.344002	99.866104
42.418999	99.859296
42.491001	99.857026
42.563999	99.857026
42.646999	99.870643
42.723	99.875182
42.793999	99.872912
42.859001	99.870643
42.929001	99.859296
43.002998	99.854757
43.202	99.845679
43.271999	99.847948
43.351002	99.852487
43.423	99.854757
43.499001	99.852487
43.563999	99.854757
43.629002	99.857026
43.686001	99.859296
43.749001	99.859296
43.82	99.852487
44.035	99.847948
44.098999	99.84341
44.169998	99.838871
44.248001	99.838871
44.323002	99.84114
44.396999	99.84114
44.467999	99.838871
44.540001	99.838871
44.611	99.84341
44.676998	99.84341
44.887001	99.820715
44.962002	99.813907
45.033001	99.813907
45.106998	99.811638
45.181	99.816176
45.257999	99.818446
45.327	99.822985
45.397999	99.825254
45.473	99.825254
45.553001	99.816176
45.778	99.809368
45.845001	99.818446
45.91	99.820715
45.976002	99.818446
46.044998	99.820715
46.117001	99.820715
46.192001	99.816176
46.268002	99.813907
46.344002	99.809368
46.423	99.809368
46.640999	99.822985
46.716	99.822985
46.792999	99.818446
46.866001	99.813907
46.942001	99.798021
47.014	99.793482
47.088001	99.798021
47.157001	99.80029
47.227001	99.795752
47.300999	99.782135
47.537998	99.768519
47.609001	99.768519
47.678001	99.768519
47.752998	99.766249
47.834	99.76398
47.903	99.76398
47.979	99.76398
48.044998	99.766249
48.129002	99.773057
48.195999	99.777596
48.408001	99.784405
48.474998	99.793482
48.547001	99.80029
48.619999	99.80029
48.692001	99.804829
48.763	99.798021
48.827999	99.80029
48.896999	99.795752
48.965	99.793482
49.035999	99.786674
49.27	99.777596
49.342999	99.782135
49.417999	99.788943
49.487999	99.784405
49.558998	99.779866
49.629002	99.775327
49.696999	99.775327
49.771999	99.770788
49.837002	99.770788
49.911999	99.766249
50.145	99.750363
50.221001	99.752633
50.299	99.759441
50.375	99.768519
50.451	99.768519
50.521	99.768519
50.591999	99.76171
50.653	99.759441
50.726002	99.757171
50.799999	99.768519
51.028	99.76171
51.098	99.754902
51.167	99.750363
51.238998	99.750363
51.310001	99.750363
51.387001	99.754902
51.465	99.754902
51.541	99.76398
51.618	99.759441
51.692001	99.745824
51.887001	99.736747
51.955002	99.732208
52.029999	99.732208
52.106998	99.732208
52.185001	99.732208
52.261002	99.734477
52.330002	99.739016
52.402	99.736747
52.478001	99.729938
52.555	99.732208
52.776001	99.736747
52.853001	99.716322
52.933998	99.709513
53.014999	99.702705
53.09	99.704975
53.160999	99.704975
53.228001	99.707244
53.306	99.707244
53.382999	99.702705
53.464001	99.702705
53.686001	99.691358
53.751999	99.695897
53.817001	99.700436
53.887001	99.707244
53.952	99.700436
54.026001	99.698166
54.103001	99.704975
54.18	99.707244
54.259998	99.704975
54.337002	99.695897
54.549999	99.686819
54.620998	99.68455
54.691002	99.686819
54.757999	99.686819
54.825001	99.689089
54.898998	99.695897
54.980999	99.698166
55.056	99.689089
55.131001	99.68455
55.198002	99.68455
55.424999	99.686819
55.501999	99.686819
55.577	99.680011
55.648998	99.675472
55.723999	99.673203
55.790001	99.675472
55.861	99.677741
55.926998	99.677741
56.000999	99.680011
56.070999	99.680011
56.289001	99.675472
56.367001	99.666394
56.442001	99.664125
56.511002	99.668664
56.576	99.675472
56.641998	99.677741
56.716999	99.673203
56.791	99.666394
56.862	99.657317
56.931	99.655047
57.130001	99.661855
57.202	99.657317
57.272999	99.655047
57.353001	99.655047
57.431	99.652778
57.507	99.650508
57.576	99.652778
57.646	99.650508
57.716	99.648239
57.791	99.641431
57.984001	99.648239
58.063999	99.652778
58.144001	99.655047
58.220001	99.655047
58.298	99.650508
58.372002	99.650508
58.438	99.650508
58.508999	99.652778
58.577999	99.652778
58.646999	99.648239
58.869999	99.611928
58.945	99.600581
59.016998	99.593773
59.083	99.589234
59.155998	99.593773
59.227001	99.60285
59.298	99.611928
59.362	99.614198
59.43	99.614198
59.501999	99.611928
59.713001	99.60512
59.789001	99.609659
59.863998	99.614198
59.938999	99.618736
60.012001	99.616467
60.085999	99.616467
60.158001	99.621006
60.227001	99.625545
60.292999	99.623275
60.360001	99.614198
60.581001	99.618736
60.646999	99.625545
60.719002	99.625545
60.796001	99.623275
60.869999	99.616467
60.949001	99.611928
61.029999	99.607389
61.108002	99.600581
61.181	99.600581
61.250999	99.60512
61.453999	99.616467
61.526001	99.611928
61.605	99.60285
61.683998	99.591503
61.758999	99.591503
61.832001	99.596042
61.905998	99.596042
61.977001	99.596042
62.048	99.598312
62.118999	99.600581
62.316002	99.593773
62.387001	99.591503
62.460999	99.596042
62.530998	99.591503
62.606998	99.591503
62.681999	99.591503
62.762001	99.586964
62.833	99.582426
62.903	99.580156
62.973999	99.582426
63.18	99.582426
63.251999	99.582426
63.327	99.589234
63.396999	99.591503
63.469002	99.589234
63.537998	99.584695
63.612	99.582426
63.682999	99.580156
63.761002	99.580156
63.832001	99.580156
64.039001	99.580156
64.103996	99.577887
64.167	99.575617
64.238998	99.573348
64.310997	99.575617
64.385002	99.577887
64.458	99.580156
64.525002	99.582426
64.589996	99.575617
64.657997	99.568809
64.864998	99.539306
64.935997	99.534768
65.007004	99.530229
65.075996	99.530229
65.152	99.532498
65.218002	99.537037
65.296997	99.543845
65.374001	99.552923
65.454002	99.548384
65.528999	99.539306
65.727997	99.537037
65.789001	99.543845
65.859001	99.552923
65.929001	99.562001
66.005997	99.562001
66.084	99.559731
66.161003	99.552923
66.235001	99.530229
66.305	99.52342
66.376999	99.530229
66.586998	99.543845
66.653999	99.537037
66.718002	99.532498
66.786003	99.527959
66.861	99.527959
66.934998	99.52569
67.001999	99.527959
67.066002	99.534768
67.121002	99.534768
67.193001	99.534768
67.418999	99.52569
67.491997	99.52342
67.560997	99.52569
67.630997	99.530229
67.700996	99.532498
67.778	99.532498
67.857002	99.532498
67.928001	99.530229
67.994003	99.516612
68.057999	99.516612
68.271004	99.52569
68.346001	99.52569
68.414001	99.52342
68.483002	99.52569
68.550003	99.52569
68.616997	99.518882
68.686996	99.512073
68.762001	99.507535
68.841003	99.502996
68.917	99.502996
69.103996	99.509804
69.174004	99.512073
69.245003	99.514343
69.317001	99.514343
69.384003	99.512073
69.452003	99.512073
69.522003	99.512073
69.595001	99.509804
69.663002	99.491648
69.734001	99.482571
69.942001	99.48711
70.019997	99.493918
70.095001	99.496187
70.160004	99.489379
70.220001	99.48484
70.277	99.482571
70.346001	99.478032
70.422997	99.478032
70.507004	99.471224
70.581001	99.466685
70.776001	99.457607
70.846001	99.453068
70.917	99.448529
70.991997	99.44626
71.065002	99.453068
71.134003	99.455338
71.206001	99.457607
71.283997	99.457607
71.359001	99.459877
71.435997	99.457607
71.650002	99.450799
71.712997	99.453068
71.778999	99.453068
71.841003	99.453068
71.906998	99.450799
71.966003	99.453068
72.029999	99.450799
72.094002	99.44626
72.165001	99.441721
72.237999	99.439452
72.453003	99.448529
72.522003	99.450799
72.595001	99.455338
72.668999	99.450799
72.741997	99.448529
72.817001	99.44626
72.896004	99.448529
72.968002	99.453068
73.042999	99.448529
73.114998	99.448529
73.329002	99.441721
73.397003	99.441721
73.469002	99.434913
73.530998	99.439452
73.598	99.439452
73.668999	99.443991
73.744003	99.44626
73.819	99.44626
73.888	99.439452
73.952003	99.430374
74.162003	99.428105
74.237999	99.428105
74.315002	99.428105
74.389	99.428105
74.462997	99.421296
74.528	99.416757
74.598	99.414488
74.662003	99.416757
74.730003	99.412219
74.796997	99.40768
75.002998	99.416757
75.073997	99.425835
75.149002	99.423566
75.222	99.421296
75.293999	99.416757
75.369003	99.412219
75.440002	99.403141
75.511002	99.398602
75.577003	99.414488
75.642998	99.423566
75.871002	99.428105
75.947998	99.419027
76.017998	99.409949
76.088997	99.396333
76.162003	99.396333
76.232002	99.389524
76.299004	99.387255
76.367996	99.384985
76.444	99.387255
76.518997	99.391794
76.744003	99.394063
76.813004	99.396333
76.874001	99.389524
76.940002	99.387255
77.008003	99.382716
77.084	99.384985
77.156998	99.391794
77.230003	99.391794
77.300003	99.391794
77.371002	99.384985
77.585999	99.375908
77.653999	99.380447
77.722	99.387255
77.796997	99.387255
77.865997	99.380447
77.932999	99.373638
78.002998	99.36683
78.073997	99.36683
78.140999	99.371369
78.206001	99.382716
78.414001	99.378177
78.485001	99.369099
78.556999	99.357752
78.633003	99.355483
78.703003	99.360022
78.767998	99.36683
78.829002	99.36683
78.894997	99.364561
78.959999	99.364561
79.030998	99.364561
79.262001	99.357752
79.339996	99.353213
79.412003	99.346405
79.484001	99.348675
79.546997	99.355483
79.611	99.362291
79.68	99.369099
79.752998	99.364561
79.825996	99.360022
79.893997	99.355483
80.109001	99.362291
80.178001	99.371369
80.242996	99.373638
80.313004	99.369099
80.388	99.362291
80.461998	99.360022
80.532997	99.362291
80.605003	99.360022
80.677002	99.36683
80.75	99.364561
80.956001	99.355483
81.025002	99.350944
81.092003	99.344136
81.155998	99.346405
81.221001	99.348675
81.294998	99.353213
81.363998	99.355483
81.438004	99.357752
81.503998	99.355483
81.574997	99.350944
81.806	99.341866
81.875999	99.332789
81.941002	99.319172
82.001999	99.305556
82.065002	99.298747
82.130997	99.291939
82.197998	99.282861
82.264999	99.278322
82.330002	99.280592
82.403999	99.28967
82.636002	99.307825
82.709999	99.314633
82.781998	99.316903
82.857002	99.323711
82.931999	99.32598
83.003998	99.323711
83.074997	99.323711
83.146004	99.321442
83.214996	99.323711
83.279999	99.323711
83.496002	99.323711
83.571999	99.316903
83.643997	99.316903
83.713997	99.314633
83.783997	99.323711
83.859001	99.319172
83.93	99.310094
84.000999	99.303286
84.072998	99.296478
84.147003	99.294208
84.341003	99.305556
84.408997	99.310094
84.486	99.312364
84.556999	99.303286
84.624001	99.298747
84.692001	99.301017
84.752998	99.301017
84.822998	99.301017
84.891998	99.303286
84.959999	99.316903
85.170998	99.303286
85.248001	99.294208
85.323997	99.282861
85.399002	99.276053
85.474998	99.271514
85.546997	99.271514
85.613998	99.282861
85.681	99.291939
85.742996	99.303286
85.811996	99.301017
86.010002	99.28967
86.079002	99.285131
86.148003	99.273784
86.214996	99.271514
86.290001	99.271514
86.366997	99.278322
86.440002	99.291939
86.505997	99.285131
86.567001	99.273784
86.630997	99.273784
86.849998	99.278322
86.926003	99.264706
86.995003	99.262436
87.059998	99.266975
87.125	99.273784
87.199997	99.280592
87.277	99.285131
87.341003	99.2874
87.405998	99.278322
87.459999	99.269245
87.671997	99.246551
87.747002	99.237473
87.819	99.228395
87.891998	99.226126
87.958	99.230664
88.027	99.242012
88.091003	99.253359
88.154999	99.262436
88.220001	99.255628
88.293999	99.246551
88.495003	99.260167
88.561996	99.257898
88.626999	99.260167
88.696999	99.260167
88.767998	99.264706
88.847	99.266975
88.917999	99.264706
88.987	99.257898
89.055	99.253359
89.123001	99.242012
89.336998	99.230664
89.412003	99.230664
89.487	99.230664
89.556	99.230664
89.633003	99.239742
89.704002	99.24882
89.778	99.257898
89.852997	99.24882
89.921997	99.244281
89.988998	99.251089
90.195999	99.244281
90.264	99.239742
90.335999	99.232934
90.412003	99.230664
90.485001	99.228395
90.556	99.230664
90.625999	99.226126
90.695999	99.226126
90.762001	99.230664
90.828003	99.242012
91.040001	99.235203
91.114998	99.226126
91.190002	99.221587
91.263	99.221587
91.339996	99.219317
91.412003	99.217048
91.477997	99.212509
91.539001	99.214779
91.609001	99.223856
91.678001	99.230664
91.897003	99.237473
91.970001	99.232934
92.040001	99.223856
92.112999	99.217048
92.189003	99.212509
92.267998	99.214779
92.335999	99.214779
92.405998	99.219317
92.474998	99.226126
92.543999	99.232934
92.744003	99.223856
92.819	99.223856
92.891998	99.221587
92.962997	99.221587
93.033997	99.226126
93.112	99.228395
93.176003	99.219317
93.238998	99.205701
93.304001	99.194354
93.375	99.187545
93.589996	99.178468
93.657997	99.178468
93.720001	99.183006
93.789001	99.178468
93.861	99.180737
93.932999	99.178468
94.008003	99.180737
94.079002	99.178468
94.153999	99.178468
94.225998	99.180737
94.429001	99.185276
94.500999	99.183006
94.572998	99.176198
94.644997	99.180737
94.716003	99.178468
94.786003	99.173929
94.856003	99.176198
94.929001	99.178468
94.999001	99.183006
95.065002	99.183006
95.287003	99.173929
95.364998	99.16939
95.434998	99.16939
95.498001	99.171659
95.557999	99.173929
95.625	99.180737
95.692001	99.185276
95.762001	99.173929
95.836998	99.162582
95.913002	99.153504
96.136002	99.160312
96.203003	99.164851
96.273003	99.171659
96.339996	99.173929
96.408997	99.178468
96.474998	99.171659
96.545998	99.164851
96.621002	99.160312
96.698997	99.158043
96.765999	99.158043
96.950996	99.164851
97.016998	99.16939
97.094002	99.162582
97.170998	99.153504
97.248001	99.158043
97.319	99.158043
97.388	99.148965
97.459999	99.144426
97.533997	99.142157
97.603996	99.148965
97.827003	99.151235
97.902	99.146696
97.971001	99.144426
98.039001	99.139887
98.112999	99.137618
98.186996	99.133079
98.260002	99.12854
98.333	99.126271
98.400002	99.124001
98.470001	99.124001
98.681999	99.146696
98.754997	99.167121
98.824997	99.178468
98.894997	99.178468
98.959	99.167121
99.021004	99.153504
99.084	99.137618
99.155998	99.110385
99.233002	99.099038
99.307999	99.101307
99.531998	99.105846
99.601997	99.112654
99.670998	99.124001
99.747002	99.12854
99.820999	99.126271
99.897003	99.126271
99.968002	99.126271
100.038002	99.13081
100.112	99.133079
100.185997	99.124001
100.402	99.108115
100.474998	99.110385
100.551003	99.112654
100.623001	99.117193
100.694	99.117193
100.765999	99.112654
100.846001	99.108115
100.922997	99.108115
101.008003	99.105846
101.072998	99.112654
101.266998	99.114924
101.336998	99.114924
101.404999	99.112654
101.480003	99.114924
101.551003	99.114924
101.625999	99.112654
101.695999	99.103577
101.769997	99.092229
101.843002	99.092229
101.915001	99.101307
102.128998	99.112654
102.195999	99.110385
102.263	99.110385
102.336998	99.114924
102.414001	99.117193
102.476997	99.114924
102.536003	99.110385
102.599998	99.103577
102.668999	99.103577
102.742996	99.099038
102.945999	99.094499
103.018997	99.099038
103.084999	99.101307
103.155998	99.094499
103.223999	99.085421
103.293999	99.076343
103.360001	99.074074
103.421997	99.074074
103.487999	99.080882
103.557999	99.087691
103.773003	99.094499
103.842003	99.087691
103.914001	99.083152
103.983002	99.076343
104.055	99.071805
104.129997	99.067266
104.202003	99.069535
104.274002	99.071805
104.334999	99.080882
104.397003	99.094499
104.616997	99.076343
104.690002	99.080882
104.763	99.083152
104.832001	99.078613
104.906998	99.071805
104.983002	99.058188
105.051003	99.04911
105.120003	99.044572
105.199997	99.042302
105.278	99.046841
105.487	99.04911
105.563004	99.055919
105.633003	99.067266
105.699997	99.069535
105.762001	99.071805
105.832001	99.058188
105.904999	99.04911
105.984001	99.040033
106.060997	99.037763
106.132004	99.042302
106.360001	99.062727
106.433998	99.062727
106.508003	99.062727
106.575996	99.05138
106.648003	99.035494
106.717003	99.033224
106.795998	99.037763
106.869003	99.046841
106.944	99.053649
107.018997	99.053649
107.230003	99.037763
107.300003	99.037763
107.378998	99.037763
107.454002	99.046841
107.532997	99.04911
107.601997	99.055919
107.669998	99.058188
107.731003	99.055919
107.792999	99.046841
107.862999	99.040033
108.102997	99.040033
108.171997	99.040033
108.240997	99.033224
108.301003	99.033224
108.369003	99.028686
108.441002	99.035494
108.517998	99.035494
108.592003	99.037763
108.661003	99.033224
108.728996	99.033224
108.949997	99.026416
109.021004	99.021877
109.092003	99.024147
109.166	99.026416
109.242996	99.021877
109.327003	99.017338
109.407997	99.017338
109.482002	99.024147
109.552002	99.028686
109.617996	99.021877
109.828003	99.0128
109.896004	99.01053
109.959	99.01053
110.028	99.015069
110.099998	99.024147
110.179001	99.030955
110.257004	99.028686
110.333	99.024147
110.408997	99.024147
110.484001	99.028686
110.718002	99.024147
110.787003	99.024147
110.855003	99.021877
110.929001	99.019608
111.011002	99.008261
111.094002	99.001452
111.171997	98.994644
111.247002	98.992375
111.317001	98.987836
111.387001	98.983297
111.594002	98.96968
111.667999	98.96968
111.741997	98.97195
111.82	98.976489
111.903	98.976489
111.981003	98.981028
112.054001	98.978758
112.130997	98.97195
112.196999	98.967411
112.263	98.960603
112.481003	98.96968
112.546997	98.96968
112.611	98.967411
112.682999	98.967411
112.764	98.965142
112.848999	98.965142
112.925003	98.962872
112.995003	98.958333
113.060997	98.956064
113.126999	98.953794
113.333	98.956064
113.401001	98.956064
113.474998	98.960603
113.544998	98.962872
113.619003	98.965142
113.692001	98.960603
113.765999	98.944717
113.838997	98.937909
113.917	98.935639
113.984001	98.9311
114.186996	98.946986
114.257004	98.953794
114.328003	98.951525
114.399002	98.949256
114.472	98.951525
114.549004	98.949256
114.623001	98.946986
114.695999	98.944717
114.763	98.946986
114.834	98.949256
115.042999	98.93337
115.114998	98.940178
115.189003	98.953794
115.255997	98.956064
115.328003	98.958333
115.391998	98.949256
115.466003	98.949256
115.536003	98.951525
115.610001	98.951525
115.681999	98.951525
115.894997	98.942447
115.959	98.937909
116.021004	98.9311
116.084999	98.9311
116.153999	98.935639
116.226997	98.942447
116.300003	98.953794
116.372002	98.956064
116.444	98.958333
116.512001	98.958333
116.717003	98.960603
116.783997	98.956064
116.849998	98.949256
116.917	98.940178
116.982002	98.9311
117.052002	98.922022
117.125	98.919753
117.195	98.919753
117.264	98.922022
117.333	98.924292
117.559998	98.928831
117.634003	98.915214
117.705002	98.910675
117.776001	98.912945
117.845001	98.915214
117.911003	98.912945
117.975998	98.906137
118.043999	98.901598
118.121002	98.906137
118.200996	98.912945
118.412003	98.917484
118.476997	98.915214
118.542999	98.901598
118.620003	98.894789
118.700996	98.887981
118.780998	98.881173
118.856003	98.876634
118.920998	98.883442
118.990997	98.897059
119.056	98.906137
119.25	98.899328
119.316002	98.897059
119.386002	98.899328
119.456001	98.89252
119.529999	98.89252
119.602997	98.887981
119.678001	98.885712
119.749001	98.883442
119.811996	98.881173
119.882004	98.878903
120.113998	98.887981
120.181	98.897059
120.250999	98.899328
120.325996	98.894789
120.401001	98.890251
120.475998	98.881173
120.551003	98.883442
120.623001	98.885712
120.693001	98.885712
120.764	98.874365
120.982002	98.874365
121.057999	98.876634
121.126999	98.876634
121.190002	98.878903
121.248001	98.872095
121.319	98.872095
121.396004	98.869826
121.473999	98.865287
121.549004	98.860748
121.623001	98.858479
121.852997	98.85394
121.928001	98.85167
121.999001	98.876634
122.069	98.894789
122.134003	98.906137
122.207001	98.901598
122.279999	98.894789
122.349998	98.885712
122.424004	98.876634
122.495003	98.869826
122.686996	98.876634
122.762001	98.881173
122.837997	98.881173
122.912003	98.860748
122.978996	98.847131
123.053001	98.838054
123.126999	98.838054
123.202003	98.840323
123.276001	98.844862
123.352997	98.840323
123.570999	98.847131
123.637001	98.85394
123.704002	98.85167
123.773003	98.833515
123.842003	98.824437
123.907997	98.819898
123.970001	98.819898
124.032997	98.822168
124.100998	98.826707
124.172997	98.833515
124.407997	98.847131
124.484001	98.85167
124.557999	98.85167
124.629997	98.849401
124.695999	98.85167
124.762001	98.847131
124.833	98.847131
124.904999	98.842593
124.981003	98.840323
125.052002	98.835784
125.278999	98.838054
125.350998	98.835784
125.427002	98.835784
125.499001	98.842593
125.573997	98.833515
125.646004	98.828976
125.720001	98.822168
125.797997	98.824437
125.875999	98.828976
125.950996	98.828976
126.164001	98.817629
126.246002	98.817629
126.321999	98.819898
126.399002	98.826707
126.471001	98.831245
126.542999	98.833515
126.612	98.835784
126.685997	98.826707
126.755997	98.826707
126.829002	98.824437
127.045998	98.828976
127.124001	98.838054
127.198997	98.844862
127.275002	98.844862
127.344002	98.840323
127.413002	98.833515
127.483002	98.831245
127.553001	98.826707
127.627998	98.828976
127.698997	98.831245
127.931999	98.828976
128.011993	98.824437
128.087997	98.828976
128.151993	98.840323
128.212006	98.844862
128.272995	98.838054
128.339005	98.824437
128.410995	98.817629
128.487	98.815359
128.563004	98.81309
128.779999	98.799474
128.850006	98.794935
128.917999	98.792665
128.988998	98.790396
129.061005	98.788126
129.139999	98.783587
129.214005	98.785857
129.285995	98.790396
129.352997	98.790396
129.419006	98.801743
129.632996	98.804012
129.705002	98.792665
129.779999	98.788126
129.852997	98.790396
129.923004	98.797204
129.988998	98.808551
130.061005	98.808551
130.134995	98.806282
130.207001	98.799474
130.279007	98.797204
130.479996	98.794935
130.546005	98.792665
130.615005	98.794935
130.684006	98.792665
130.746994	98.792665
130.813004	98.788126
130.882996	98.788126
130.955994	98.790396
131.033005	98.797204
131.104996	98.788126
131.317001	98.77224
131.389008	98.767702
131.464005	98.769971
131.537994	98.77224
131.608994	98.781318
131.675003	98.783587
131.738998	98.779049
131.811996	98.776779
131.884003	98.77451
131.960007	98.77451
132.182007	98.779049
132.259003	98.783587
132.335999	98.783587
132.408005	98.785857
132.475998	98.785857
132.544998	98.779049
132.615005	98.77224
132.688995	98.769971
132.757996	98.77451
132.824005	98.769971
133.042999	98.760893
133.123993	98.763163
133.199005	98.763163
133.268997	98.760893
133.343002	98.758624
133.414993	98.758624
133.492004	98.763163
133.569	98.767702
133.647003	98.767702
133.720001	98.763163
133.936005	98.765432
134.005997	98.758624
134.072006	98.754085
134.145004	98.751815
134.225006	98.751815
134.304993	98.754085
134.380005	98.751815
134.453995	98.749546
134.524994	98.740468
134.598999	98.731391
134.809006	98.713235
134.873001	98.710966
134.936996	98.708696
135.009003	98.708696
135.080002	98.713235
135.149002	98.720044
135.218994	98.726852
135.294998	98.722313
135.371994	98.715505
135.442001	98.708696
135.651993	98.717774
135.729996	98.726852
135.800995	98.722313
135.873001	98.729121
135.942001	98.729121
136.018005	98.738199
136.093002	98.742738
136.162994	98.738199
136.229996	98.729121
136.298996	98.715505
136.524994	98.717774
136.589005	98.720044
136.658997	98.713235
136.731995	98.722313
136.809998	98.726852
136.884995	98.726852
136.957993	98.722313
137.033005	98.726852
137.102997	98.726852
137.177002	98.720044
137.382004	98.713235
137.449997	98.724582
137.518005	98.726852
137.589996	98.722313
137.664001	98.715505
137.738998	98.717774
137.813995	98.715505
137.884003	98.710966
137.953995	98.701888
138.020004	98.69508
138.229004	98.706427
138.296997	98.717774
138.365005	98.722313
138.444	98.724582
138.518005	98.717774
138.591995	98.713235
138.662994	98.706427
138.735992	98.708696
138.809006	98.713235
138.882996	98.710966
139.093994	98.720044
139.166	98.724582
139.238007	98.724582
139.309006	98.720044
139.380005	98.717774
139.449997	98.720044
139.520004	98.724582
139.591995	98.726852
139.664001	98.724582
139.735001	98.722313
139.949005	98.729121
140.018997	98.710966
140.091003	98.699619
140.173004	98.699619
140.248993	98.704158
140.322998	98.701888
140.391998	98.690541
140.462997	98.674655
140.541	98.663308
140.617996	98.6565
140.834	98.647422
140.904999	98.647422
140.981995	98.651961
141.065002	98.663308
141.149002	98.663308
141.227005	98.661039
141.300003	98.661039
141.371002	98.667847
141.444	98.670116
141.520996	98.663308
141.755997	98.65423
141.832993	98.665577
141.910995	98.665577
141.981995	98.663308
142.052002	98.663308
142.117996	98.667847
142.188995	98.665577
142.264008	98.665577
142.341995	98.661039
142.423004	98.65423
142.651001	98.663308
142.729996	98.665577
142.807999	98.665577
142.886002	98.65423
142.960007	98.642883
143.035004	98.633805
143.112	98.631536
143.190002	98.645152
143.268997	98.658769
143.345993	98.667847
143.561996	98.661039
143.634995	98.6565
143.705994	98.645152
143.776993	98.636075
143.848007	98.633805
143.923996	98.640614
144.005997	98.645152
144.084	98.647422
144.160995	98.642883
144.233994	98.642883
144.449997	98.636075
144.516006	98.631536
144.585999	98.633805
144.660004	98.633805
144.733002	98.638344
144.807999	98.638344
144.878998	98.645152
144.955002	98.649691
145.029007	98.65423
145.100998	98.649691
145.300003	98.645152
145.365005	98.647422
145.436005	98.645152
145.507004	98.647422
145.580002	98.642883
145.654007	98.645152
145.723007	98.645152
145.796005	98.645152
145.869003	98.642883
145.940994	98.647422
146.151001	98.636075
146.227005	98.631536
146.300003	98.624728
146.373001	98.61565
146.449997	98.611111
146.526001	98.606572
146.598999	98.604303
146.675003	98.604303
146.748993	98.604303
146.826996	98.613381
147.046997	98.608842
147.117004	98.608842
147.190002	98.611111
147.257004	98.620189
147.328003	98.622458
147.399994	98.626997
147.477005	98.629267
147.554993	98.629267
147.634995	98.626997
147.709	98.61565
147.908997	98.606572
147.983002	98.604303
148.057007	98.606572
148.126999	98.608842
148.203003	98.617919
148.272995	98.606572
148.345001	98.595225
148.414001	98.592956
148.485992	98.597495
148.563004	98.606572
148.789001	98.606572
148.860992	98.599764
148.929001	98.599764
148.998001	98.599764
149.070007	98.597495
149.145004	98.599764
149.218002	98.590686
149.289001	98.588417
149.360001	98.581609
149.436005	98.583878
149.656006	98.592956
149.731995	98.595225
149.815002	98.597495
149.897995	98.602033
149.981995	98.602033
150.063995	98.597495
150.139008	98.57707
150.209	98.5748
150.279999	98.5748
150.348007	98.57707
150.576996	98.5748
150.649994	98.579339
150.723999	98.588417
150.792007	98.592956
150.869003	98.586147
150.938995	98.570261
151.011002	98.565722
151.085007	98.556645
151.158005	98.549837
151.229996	98.547567
151.453003	98.570261
151.526993	98.579339
151.597	98.581609
151.669006	98.57707
151.744995	98.567992
151.822998	98.563453
151.901001	98.565722
151.970993	98.572531
152.046997	98.5748
152.123993	98.567992
152.354996	98.538489
152.423004	98.531681
152.492996	98.531681
152.567993	98.533951
152.641998	98.543028
152.712006	98.547567
152.783997	98.549837
152.856995	98.547567
152.932007	98.547567
153.001999	98.549837
153.233002	98.554375
153.309006	98.561184
153.376007	98.563453
153.445007	98.558914
153.514999	98.554375
153.591003	98.545298
153.667007	98.543028
153.746994	98.540759
153.828003	98.543028
153.906006	98.545298
154.113007	98.552106
154.188004	98.53622
154.259995	98.529412
154.334	98.529412
154.403	98.527142
154.473007	98.522603
154.541	98.522603
154.608994	98.522603
154.684998	98.529412
154.759995	98.531681
154.988007	98.533951
155.057007	98.53622
155.126007	98.538489
155.203003	98.53622
155.278	98.529412
155.354004	98.524873
155.423996	98.522603
155.498001	98.520334
155.572998	98.518065
155.647003	98.518065
155.882004	98.524873
155.955994	98.522603
156.028	98.520334
156.097	98.515795
156.173004	98.520334
156.25	98.515795
156.320999	98.513526
156.391006	98.513526
156.466995	98.513526
156.548004	98.508987
156.764999	98.49764
156.841003	98.49537
156.914993	98.488562
156.988007	98.486293
157.063004	98.488562
157.141998	98.49537
157.214996	98.49764
157.283997	98.49764
157.352005	98.49537
157.429001	98.513526
157.654007	98.515795
157.729004	98.504448
157.807007	98.49764
157.889999	98.49764
157.970001	98.49537
158.054001	98.49764
158.123993	98.493101
158.197998	98.481754
158.268005	98.472676
158.341003	98.461329
158.578003	98.454521
158.651001	98.452251
158.725998	98.452251
158.802994	98.452251
158.871994	98.45679
158.944	98.45679
159.016006	98.465868
159.093002	98.468137
159.169998	98.474946
159.242004	98.477215
159.451004	98.459059
159.531006	98.45679
159.610001	98.461329
159.690002	98.468137
159.766998	98.470407
159.847	98.461329
159.927002	98.45679
160.003006	98.449982
160.078995	98.452251
160.156998	98.449982
160.399002	98.459059
160.473999	98.45679
160.548004	98.452251
160.625	98.440904
160.701004	98.436365
160.774002	98.429557
160.852005	98.431826
160.931	98.438635
161.016998	98.445443
161.095993	98.452251
161.324997	98.452251
161.397995	98.449982
161.472	98.447712
161.550003	98.440904
161.630997	98.443174
161.710999	98.443174
161.785995	98.449982
161.863007	98.445443
161.938004	98.438635
162.016998	98.425018
162.251007	98.411402
162.320999	98.41821
162.391006	98.422749
162.466003	98.427287
162.539993	98.427287
162.612	98.431826
162.686996	98.436365
162.766006	98.438635
162.843994	98.443174
162.919998	98.447712
163.128998	98.443174
163.201004	98.443174
163.274002	98.434096
163.352997	98.431826
163.431	98.431826
163.509003	98.431826
163.580994	98.425018
163.653	98.41594
163.723007	98.413671
163.792999	98.41821
164.018005	98.434096
164.093002	98.431826
164.164993	98.425018
164.235992	98.41594
164.306	98.411402
164.380997	98.404593
164.455002	98.393246
164.531998	98.384168
164.604996	98.381899
164.675003	98.37736
164.904999	98.386438
164.990997	98.393246
165.074005	98.397785
165.149002	98.386438
165.223007	98.386438
165.289001	98.386438
165.358002	98.388707
165.429001	98.386438
165.498993	98.388707
165.569	98.390977
165.785995	98.397785
165.863998	98.395516
165.940994	98.390977
166.016006	98.395516
166.085999	98.390977
166.158997	98.381899
166.235992	98.372821
166.311996	98.368283
166.384003	98.372821
166.453995	98.375091
166.682007	98.372821
166.763	98.37963
166.835999	98.386438
166.906998	98.37963
166.979996	98.37963
167.052002	98.381899
167.126007	98.393246
167.201004	98.395516
167.276993	98.400054
167.354004	98.397785
167.572006	98.381899
167.641006	98.384168
167.710999	98.384168
167.783005	98.388707
167.854996	98.386438
167.929001	98.37963
168.007004	98.372821
168.085999	98.375091
168.162003	98.384168
168.235992	98.388707
168.453995	98.370552
168.528	98.363744
168.598999	98.366013
168.669998	98.366013
168.740005	98.370552
168.813995	98.368283
168.893005	98.359205
168.977005	98.356935
169.059006	98.363744
169.136002	98.370552
169.341003	98.375091
169.408997	98.370552
169.485001	98.363744
169.563995	98.359205
169.636002	98.368283
169.701004	98.375091
169.768005	98.37963
169.841995	98.375091
169.917007	98.368283
169.996002	98.372821
170.214996	98.350127
170.289001	98.331972
170.367004	98.316086
170.442993	98.316086
170.522003	98.318355
170.600998	98.318355
170.679001	98.313816
170.755997	98.304739
170.832001	98.3002
170.910995	98.3002
171.139008	98.304739
171.212997	98.302469
171.279999	98.307008
171.352997	98.29793
171.429001	98.295661
171.507996	98.293391
171.585007	98.295661
171.656998	98.3002
171.735001	98.3002
171.807007	98.3002
172.020996	98.307008
172.091995	98.309277
172.162994	98.309277
172.242996	98.307008
172.322998	98.304739
172.397003	98.29793
172.462006	98.295661
172.535004	98.295661
172.608994	98.295661
172.690994	98.29793
172.923004	98.302469
172.994003	98.295661
173.059006	98.295661
173.126999	98.293391
173.199005	98.29793
173.274002	98.293391
173.352005	98.284314
173.429001	98.279775
173.505005	98.279775
173.572006	98.282044
173.776001	98.272967
173.850998	98.270697
173.925995	98.270697
174.003006	98.268428
174.074997	98.266158
174.149002	98.261619
174.222	98.261619
174.296005	98.263889
174.365005	98.266158
174.432007	98.263889
174.643997	98.254811
174.720001	98.252542
174.791	98.252542
174.862	98.252542
174.932007	98.252542
175.003998	98.248003
175.078003	98.248003
175.156998	98.243464
175.233002	98.243464
175.307999	98.250272
175.544006	98.257081
175.619995	98.243464
175.694	98.243464
175.770996	98.254811
175.843994	98.261619
175.917007	98.272967
175.990005	98.277505
176.067993	98.275236
176.145004	98.268428
176.218002	98.252542
176.453995	98.243464
176.537003	98.241195
176.612	98.243464
176.681	98.241195
176.75	98.245733
176.817993	98.241195
176.891998	98.236656
176.973007	98.227578
177.054001	98.227578
177.130997	98.22077
177.363007	98.204884
177.438004	98.200345
177.511002	98.198075
177.582001	98.198075
177.654007	98.200345
177.731995	98.204884
177.813004	98.209423
177.891006	98.211692
177.966995	98.209423
178.044006	98.202614
178.259995	98.195806
178.332001	98.2185
178.406998	98.22077
178.485992	98.211692
178.559998	98.195806
178.636002	98.188998
178.710007	98.186728
178.787003	98.188998
178.863998	98.186728
178.936005	98.186728
179.160004	98.209423
179.237	98.213961
179.313995	98.209423
179.384003	98.198075
179.455994	98.188998
179.524994	98.184459
179.598999	98.177651
179.671005	98.17992
179.746994	98.188998
179.824997	98.188998
180.048004	98.184459
180.115997	98.186728
180.190002	98.182189
180.263	98.182189
180.335007	98.184459
180.404999	98.186728
180.475006	98.184459
180.544006	98.168573
180.615005	98.164034
180.682007	98.164034
180.908005	98.173112
180.983002	98.170842
181.052002	98.159495
181.125	98.164034
181.205002	98.164034
181.281998	98.168573
181.360001	98.166304
181.436005	98.168573
181.511993	98.173112
181.589005	98.173112
181.796005	98.173112
181.867996	98.177651
181.940994	98.184459
182.013	98.188998
182.085999	98.177651
182.158005	98.159495
182.235001	98.152687
182.309998	98.150418
182.389008	98.152687
182.462997	98.14134
182.675003	98.105029
182.753006	98.109568
182.832993	98.107298
182.914993	98.105029
182.985001	98.098221
183.050003	98.095951
183.113998	98.098221
183.182007	98.098221
183.255005	98.105029
183.335007	98.10049
183.565002	98.107298
183.639999	98.111837
183.710007	98.120915
183.787994	98.120915
183.867996	98.120915
183.951996	98.120915
184.029999	98.118646
184.104996	98.123184
184.179993	98.118646
184.261002	98.114107
184.494995	98.086874
184.572006	98.082335
184.651001	98.080065
184.723999	98.086874
184.800995	98.089143
184.878998	98.089143
184.962006	98.080065
185.044006	98.077796
185.123993	98.077796
185.205002	98.080065
185.444	98.073257
185.522003	98.070988
185.593994	98.089143
185.666	98.10049
185.742996	98.105029
185.819	98.095951
185.899994	98.082335
185.972	98.064179
186.052002	98.06191
186.138	98.06191
186.376007	98.05964
186.445007	98.052832
186.520004	98.055102
186.598007	98.057371
186.675003	98.066449
186.742004	98.066449
186.804001	98.06191
186.869003	98.055102
186.940002	98.050563
187.018997	98.046024
187.240997	98.039216
187.317001	98.032407
187.391006	98.032407
187.466003	98.036946
187.537994	98.041485
187.615997	98.041485
187.694	98.041485
187.772003	98.039216
187.847	98.043755
187.917999	98.036946
188.153	98.039216
188.240997	98.041485
188.319	98.041485
188.395996	98.041485
188.464996	98.039216
188.537994	98.034677
188.606003	98.032407
188.679993	98.02333
188.755005	98.016521
188.835007	98.011983
189.065994	98.016521
189.143005	98.016521
189.225006	98.014252
189.298996	98.014252
189.371002	98.000635
189.442993	97.993827
189.520996	97.998366
189.606995	98.007444
189.692993	98.02106
189.778	98.02333
190.005005	98.000635
190.076996	97.998366
190.154007	97.998366
190.235001	98.000635
190.317001	97.998366
190.397995	97.989288
190.483002	97.984749
190.570007	97.975672
190.654007	97.973402
190.733994	97.975672
190.968002	97.987019
191.048996	97.987019
191.130005	97.993827
191.216995	98.000635
191.300995	98.000635
191.380005	97.991558
191.457001	97.971133
191.535004	97.973402
191.610992	97.977941
191.690002	97.984749
191.934998	97.977941
192.020996	97.968863
192.102997	97.962055
192.179001	97.962055
192.255005	97.964324
192.330994	97.964324
192.410004	97.964324
192.490005	97.962055
192.570999	97.959786
192.651001	97.955247
192.882004	97.948439
192.957993	97.94163
193.031006	97.937092
193.106003	97.94163
193.184006	97.946169
193.259003	97.948439
193.337997	97.9439
193.406006	97.937092
193.477997	97.932553
193.548996	97.928014
193.789001	97.925744
193.871002	97.934822
193.951996	97.937092
194.029999	97.9439
194.106003	97.946169
194.177994	97.94163
194.255005	97.930283
194.328995	97.921206
194.404999	97.921206
194.481003	97.925744
194.710007	97.937092
194.789993	97.948439
194.869995	97.962055
194.947006	97.966594
195.022995	97.959786
195.095993	97.9439
195.175003	97.921206
195.25	97.916667
195.317001	97.907589
195.386993	97.896242
195.613998	97.878086
195.697998	97.875817
195.781998	97.866739
195.856995	97.869009
195.927002	97.869009
195.994995	97.871278
196.067001	97.869009
196.143005	97.866739
196.218002	97.86447
196.298004	97.869009
196.531006	97.882625
196.597	97.884895
196.669998	97.884895
196.742996	97.887164
196.815994	97.884895
196.886993	97.882625
196.951996	97.866739
197.020996	97.855392
197.095001	97.853123
197.171997	97.848584
197.406006	97.848584
197.481003	97.841776
197.557007	97.834967
197.634003	97.82589
197.705994	97.82362
197.776001	97.832698
197.845001	97.844045
197.919006	97.853123
197.996994	97.850853
198.076004	97.844045
198.309006	97.830429
198.382004	97.828159
198.457993	97.830429
198.533997	97.82362
198.613007	97.816812
198.688995	97.814543
198.761002	97.814543
198.835007	97.805465
198.910004	97.800926
198.987	97.798656
199.207993	97.812273
199.291	97.812273
199.373001	97.814543
199.453003	97.810004
199.535995	97.816812
199.615997	97.816812
199.697006	97.819081
199.776993	97.821351
199.858002	97.816812
199.940994	97.814543
200.179993	97.789579
200.255005	97.787309
200.334	97.787309
200.417007	97.78504
200.501999	97.787309
200.585999	97.78504
200.664001	97.791848
200.740997	97.791848
200.813004	97.791848
200.886993	97.787309
201.128006	97.78277
201.209	97.778232
201.285995	97.775962
201.360992	97.775962
201.442001	97.78277
201.524994	97.791848
201.604004	97.78277
201.681	97.766884
201.757004	97.762346
201.826996	97.760076
202.061996	97.748729
202.134003	97.74646
202.210007	97.74419
202.285995	97.739651
202.363007	97.732843
202.438004	97.730574
202.507996	97.726035
202.582001	97.728304
202.654007	97.735112
202.716995	97.739651
202.929993	97.739651
203.007996	97.735112
203.080002	97.728304
203.154007	97.716957
203.225006	97.710149
203.294998	97.70561
203.373001	97.70561
203.451004	97.701071
203.529999	97.701071
203.604004	97.696532
203.811996	97.703341
203.882004	97.70561
203.962006	97.70561
204.039001	97.703341
204.121994	97.691993
204.192993	97.687454
204.266998	97.687454
204.337997	97.680646
204.419006	97.678377
204.503006	97.678377
204.740005	97.676107
204.817001	97.678377
204.889999	97.682916
204.964996	97.689724
205.039993	97.694263
205.117996	97.691993
205.194	97.687454
205.266998	97.680646
205.343002	97.682916
205.417999	97.682916
205.651001	97.689724
205.729996	97.689724
205.804993	97.694263
205.880997	97.698802
205.955994	97.696532
206.029007	97.673838
206.104004	97.66476
206.175995	97.655683
206.251999	97.651144
206.326996	97.653413
206.565994	97.660221
206.643997	97.655683
206.718002	97.655683
206.792007	97.660221
206.869995	97.66703
206.951004	97.676107
207.031006	97.680646
207.112	97.678377
207.192001	97.678377
207.268005	97.673838
207.490997	97.66703
207.567993	97.66476
207.643005	97.655683
207.714996	97.644336
207.787003	97.62845
207.863007	97.614833
207.947006	97.605755
208.022003	97.605755
208.104004	97.608025
208.182007	97.608025
208.399994	97.617102
208.475998	97.617102
208.552002	97.614833
208.632996	97.601216
208.705994	97.596678
208.779999	97.592139
208.852997	97.596678
208.927002	97.601216
208.998993	97.598947
209.076004	97.603486
209.307007	97.619372
209.382996	97.617102
209.457993	97.614833
209.535004	97.610294
209.610001	97.612563
209.682999	97.610294
209.755997	97.610294
209.830002	97.610294
209.901993	97.605755
209.975998	97.603486
210.205002	97.612563
210.281006	97.596678
210.356995	97.589869
210.429001	97.589869
210.5	97.5876
210.574997	97.5876
210.656006	97.578522
210.738998	97.576253
210.824997	97.571714
210.908005	97.567175
211.145004	97.553559
211.227005	97.555828
211.311996	97.555828
211.384003	97.555828
211.457001	97.544481
211.529007	97.535403
211.602997	97.528595
211.677994	97.533134
211.751007	97.542211
211.820999	97.553559
212.059006	97.564906
212.136993	97.558097
212.214996	97.551289
212.291	97.54902
212.360001	97.54675
212.429993	97.544481
212.498993	97.539942
212.569	97.537672
212.641006	97.535403
212.710007	97.535403
212.925995	97.535403
212.994995	97.533134
213.061005	97.537672
213.130997	97.535403
213.207993	97.54675
213.283997	97.553559
213.360001	97.551289
213.427994	97.542211
213.498001	97.535403
213.567993	97.533134
213.802002	97.512709
213.882996	97.505901
213.962997	97.501362
214.039993	97.503631
214.117996	97.505901
214.195007	97.50817
214.272995	97.503631
214.352005	97.496823
214.432999	97.490015
214.514999	97.490015
214.748001	97.480937
214.824005	97.476398
214.904999	97.471859
214.990997	97.471859
215.074997	97.46732
215.158997	97.46959
215.235001	97.476398
215.315002	97.480937
215.395004	97.483206
215.473007	97.480937
215.716003	97.474128
215.802994	97.46959
215.880997	97.474128
215.951004	97.476398
216.020004	97.476398
216.098007	97.46732
216.175995	97.465051
216.255005	97.460512
216.334	97.455973
216.408005	97.451434
216.636002	97.465051
216.712006	97.46732
216.792999	97.460512
216.876007	97.444626
216.955002	97.440087
217.026993	97.437818
217.095993	97.442357
217.171997	97.446895
217.248001	97.446895
217.328003	97.446895
217.565994	97.435548
217.641998	97.421932
217.718994	97.417393
217.798004	97.415123
217.878006	97.417393
217.955994	97.417393
218.028	97.419662
218.100006	97.419662
218.173004	97.419662
218.25	97.415123
218.483994	97.403776
218.559006	97.399237
218.636993	97.399237
218.718994	97.396968
218.804001	97.399237
218.878998	97.399237
218.955994	97.403776
219.026001	97.401507
219.104004	97.403776
219.188004	97.401507
219.427002	97.399237
219.5	97.399237
219.574997	97.403776
219.654999	97.401507
219.737	97.396968
219.819	97.38789
219.901001	97.38789
219.979996	97.394699
220.057999	97.399237
220.132996	97.38789
220.367004	97.365196
220.444	97.362927
220.518005	97.362927
220.593002	97.360657
220.671997	97.358388
220.753998	97.356118
220.841003	97.353849
220.927002	97.353849
221.009995	97.351579
221.089005	97.344771
221.313004	97.333424
221.393997	97.331155
221.472	97.335693
221.548004	97.340232
221.619995	97.342502
221.695999	97.337963
221.781998	97.331155
221.867996	97.326616
221.953995	97.333424
222.031998	97.337963
222.268005	97.344771
222.345001	97.353849
222.419006	97.356118
222.492996	97.34931
222.572998	97.340232
222.654007	97.333424
222.740997	97.335693
222.817993	97.335693
222.893005	97.344771
222.962997	97.344771
223.190994	97.319808
223.263	97.317538
223.348999	97.315269
223.429001	97.322077
223.511002	97.324346
223.589996	97.322077
223.667007	97.315269
223.744995	97.306191
223.819	97.303922
223.893997	97.301652
224.117996	97.294844
224.188995	97.292574
224.264999	97.290305
224.341003	97.294844
224.423004	97.294844
224.498993	97.294844
224.576996	97.292574
224.651993	97.283497
224.731995	97.278958
224.807999	97.274419
225.033005	97.26988
225.117996	97.26988
225.197998	97.26988
225.279007	97.27215
225.356003	97.26988
225.436996	97.263072
225.518005	97.260802
225.598007	97.260802
225.677002	97.263072
225.746994	97.267611
225.979004	97.290305
226.067001	97.285766
226.154007	97.276688
226.240005	97.27215
226.324005	97.274419
226.406006	97.278958
226.490005	97.276688
226.567993	97.27215
226.651993	97.260802
226.735001	97.256263
226.975998	97.258533
227.056	97.258533
227.139008	97.253994
227.218002	97.244916
227.296005	97.235839
227.369995	97.222222
227.455002	97.217683
227.537003	97.215414
227.617004	97.217683
227.688995	97.219953
227.923004	97.199528
228.005005	97.194989
228.080002	97.197258
228.158005	97.201797
228.238998	97.204067
228.324997	97.201797
228.408997	97.197258
228.494003	97.19045
228.572006	97.188181
228.653	97.185911
228.901001	97.183642
228.973007	97.181373
229.050003	97.183642
229.126007	97.181373
229.207993	97.188181
229.285995	97.188181
229.362	97.19045
229.438995	97.194989
229.511993	97.201797
229.589005	97.204067
229.830994	97.185911
229.908005	97.183642
229.987	97.181373
230.069	97.176834
230.145996	97.170025
230.223007	97.165487
230.296005	97.167756
230.369995	97.174564
230.442993	97.174564
230.516006	97.165487
230.735001	97.149601
230.811005	97.15414
230.891006	97.160948
230.964996	97.167756
231.035004	97.170025
231.106003	97.163217
231.184006	97.160948
231.264999	97.163217
231.345001	97.170025
231.423004	97.179103
231.638	97.179103
231.712006	97.179103
231.789001	97.170025
231.863007	97.160948
231.934998	97.15414
232.007004	97.158678
232.082001	97.160948
232.156998	97.163217
232.238007	97.158678
232.319	97.163217
232.531998	97.170025
232.600998	97.165487
232.675995	97.160948
232.757996	97.15414
232.841995	97.147331
232.921005	97.142792
233.001999	97.147331
233.080002	97.142792
233.158005	97.133714
233.233994	97.124637
233.464005	97.115559
233.544998	97.11329
233.630005	97.11329
233.709	97.115559
233.785004	97.11329
233.854996	97.108751
233.925995	97.11102
234.005005	97.117829
234.089005	97.126906
234.175995	97.131445
234.408005	97.104212
234.490005	97.099673
234.570999	97.101943
234.643005	97.106482
234.712997	97.106482
234.789001	97.097404
234.865997	97.097404
234.942993	97.090595
235.022003	97.095134
235.098007	97.099673
235.341995	97.108751
235.425003	97.090595
235.503006	97.083787
235.572998	97.088326
235.647003	97.086056
235.725006	97.079248
235.802994	97.074709
235.878998	97.081518
235.953003	97.090595
236.026001	97.092865
236.266998	97.079248
236.347	97.070171
236.419006	97.063362
236.485992	97.063362
236.556	97.063362
236.630005	97.067901
236.707001	97.070171
236.781998	97.074709
236.860992	97.070171
236.940002	97.063362
237.184006	97.067901
237.257004	97.074709
237.330002	97.076979
237.406998	97.047476
237.481003	97.036129
237.561005	97.029321
237.641006	97.036129
237.718994	97.040668
237.794998	97.040668
237.875	97.036129
238.108002	97.040668
238.182007	97.040668
238.259995	97.040668
238.339005	97.052015
238.417999	97.058823
238.498001	97.065632
238.576996	97.065632
238.651001	97.065632
238.723007	97.063362
238.796997	97.056554
239.031006	97.063362
239.110001	97.063362
239.188995	97.036129
239.261002	97.029321
239.337006	97.03159
239.417007	97.029321
239.496002	97.027052
239.572998	97.022513
239.647003	97.020243
239.723007	97.015704
239.973007	97.008896
240.056	97.011165
240.128998	97.020243
240.199997	97.027052
240.268997	97.022513
240.341003	97.008896
240.414993	97.006627
240.488007	97.004357
240.567001	97.006627
240.641006	97.006627
240.858002	97.004357
240.927994	97.004357
241.001999	96.999818
241.080994	96.990741
241.154999	96.986202
241.227005	96.979394
241.292999	96.981663
241.367004	96.983932
241.445999	96.990741
241.526993	96.99528
241.746002	96.986202
241.824005	96.972585
241.899994	96.970316
241.975006	96.968046
242.046997	96.974855
242.121002	96.986202
242.190994	97.002088
242.261002	96.997549
242.335007	96.99301
242.414001	96.981663
242.651993	96.977124
242.727997	96.977124
242.802002	96.977124
242.876007	96.977124
242.960999	96.974855
243.044006	96.977124
243.128998	96.972585
243.210007	96.963507
243.289001	96.956699
243.365997	96.95443
243.613998	96.963507
243.701996	96.961238
243.783997	96.956699
243.865997	96.958969
243.940994	96.963507
244.018005	96.961238
244.091995	96.956699
244.171005	96.943083
244.251007	96.936274
244.332001	96.931736
244.572006	96.940813
244.651993	96.940813
244.733002	96.945352
244.815994	96.956699
244.903	96.968046
244.990997	96.974855
245.070999	96.979394
245.151001	96.972585
245.229996	96.968046
245.309998	96.95443
245.554001	96.947622
245.639008	96.949891
245.723999	96.949891
245.804993	96.949891
245.880005	96.949891
245.957001	96.945352
246.033997	96.936274
246.115997	96.929466
246.199005	96.927197
246.281006	96.924927
246.522003	96.920388
246.604996	96.918119
246.692001	96.909041
246.781006	96.904503
246.863007	96.899964
246.947006	96.902233
247.029007	96.904503
247.113007	96.906772
247.194	96.904503
247.270996	96.897694
247.505997	96.895425
247.585999	96.902233
247.667007	96.893155
247.746994	96.888616
247.824997	96.888616
247.901001	96.886347
247.975006	96.881808
248.054001	96.875
248.130997	96.879539
248.210007	96.886347
248.445007	96.870461
248.522995	96.863653
248.600998	96.859114
248.684998	96.854575
248.766006	96.852306
248.841995	96.850036
248.910995	96.856845
248.981995	96.856845
249.061005	96.856845
249.145996	96.859114
249.384995	96.875
249.462997	96.875
249.542999	96.868192
249.628006	96.856845
249.714005	96.856845
249.792999	96.861383
249.871994	96.854575
249.949997	96.852306
250.037003	96.852306
250.119995	96.850036
250.365997	96.854575
250.445999	96.859114
250.529007	96.854575
250.613007	96.852306
250.699005	96.850036
250.776993	96.850036
250.854004	96.847767
250.931	96.847767
251.007996	96.843228
251.087006	96.83415
251.322998	96.831881
251.406006	96.847767
251.487	96.859114
251.570007	96.861383
251.647995	96.856845
251.725998	96.852306
251.802002	96.847767
251.878006	96.843228
251.951996	96.820534
252.022995	96.820534
252.25	96.827342
252.328003	96.825073
252.408997	96.825073
252.492996	96.822803
252.570007	96.825073
252.649994	96.815995
252.729996	96.813725
252.811996	96.809186
252.886002	96.809186
252.957001	96.802378
253.182999	96.797839
253.259995	96.797839
253.335999	96.797839
253.417007	96.800109
253.494003	96.800109
253.572998	96.793301
253.649002	96.784223
253.723999	96.777415
253.800995	96.775145
253.873001	96.779684
254.100998	96.772876
254.188995	96.763798
254.278	96.763798
254.362	96.768337
254.440002	96.777415
254.514008	96.777415
254.587006	96.781954
254.662994	96.781954
254.738998	96.781954
254.819	96.777415
255.061005	96.770606
255.141998	96.766068
255.225998	96.763798
255.309998	96.761528
255.388	96.759259
255.455994	96.766068
255.529007	96.770606
255.608994	96.770606
255.697998	96.768337
255.779999	96.766068
256.010986	96.75699
256.088989	96.75472
256.160004	96.750181
256.234009	96.752451
256.312988	96.747912
256.401001	96.745643
256.487	96.738834
256.570007	96.736565
256.648987	96.738834
256.730011	96.743373
256.976013	96.738834
257.054993	96.738834
257.128998	96.738834
257.203003	96.732026
257.276001	96.732026
257.355988	96.734295
257.437012	96.738834
257.515015	96.734295
257.591003	96.734295
257.665985	96.736565
257.903015	96.741104
257.980988	96.738834
258.058014	96.741104
258.134003	96.745643
258.205994	96.745643
258.276001	96.738834
258.345001	96.741104
258.421997	96.734295
258.5	96.729757
258.578003	96.725218
258.799011	96.709332
258.872986	96.709332
258.949005	96.711601
259.029999	96.711601
259.104004	96.709332
259.178986	96.709332
259.255005	96.709332
259.332001	96.713871
259.404999	96.711601
259.472992	96.711601
259.692993	96.707062
259.776001	96.704793
259.855011	96.697985
259.925995	96.693446
259.993988	96.695715
260.062988	96.695715
260.132996	96.700254
260.20401	96.695715
260.281006	96.693446
260.359985	96.693446
260.605011	96.67756
260.687012	96.668482
260.768005	96.666213
260.852997	96.663943
260.934998	96.663943
261.019989	96.659405
261.105988	96.657135
261.192993	96.659405
261.281006	96.663943
261.365997	96.670752
261.614014	96.684368
261.692993	96.686637
261.774994	96.679829
261.864014	96.661674
261.950012	96.654866
262.035004	96.652596
262.113007	96.654866
262.188995	96.659405
262.266998	96.659405
262.346985	96.659405
262.598999	96.652596
262.679993	96.645788
262.760986	96.643518
262.841003	96.643518
262.92099	96.645788
263	96.645788
263.074005	96.645788
263.154999	96.648057
263.237	96.652596
263.317993	96.648057
263.540009	96.629902
263.622986	96.623094
263.700012	96.623094
263.778015	96.623094
263.855011	96.627633
263.928986	96.632171
264.006989	96.634441
264.088989	96.63898
264.174988	96.63671
264.256989	96.632171
264.48999	96.629902
264.566986	96.629902
264.647003	96.625363
264.720001	96.614016
264.798004	96.59813
264.876007	96.589052
264.958008	96.584513
265.040009	96.586783
265.118011	96.584513
265.201996	96.586783
265.451996	96.589052
265.527008	96.591322
265.608002	96.584513
265.694	96.575436
265.774994	96.577705
265.855011	96.579975
265.928986	96.584513
266.002991	96.584513
266.080994	96.582244
266.158997	96.584513
266.401001	96.593591
266.47699	96.591322
266.556	96.579975
266.634003	96.577705
266.716003	96.573166
266.799011	96.573166
266.881012	96.575436
266.955994	96.577705
267.033997	96.577705
267.112	96.568627
267.345001	96.564088
267.424988	96.568627
267.501007	96.564088
267.57901	96.55728
267.660004	96.548203
267.739014	96.545933
267.817993	96.541394
267.890991	96.543664
267.966003	96.550472
268.046997	96.55955
268.291992	96.545933
268.369995	96.541394
268.457001	96.543664
268.539001	96.545933
268.621002	96.550472
268.703003	96.545933
268.785004	96.541394
268.865997	96.539125
268.951996	96.536855
269.033997	96.534586
269.278015	96.534586
269.359985	96.536855
269.441986	96.532317
269.522003	96.530047
269.602997	96.532317
269.687012	96.527778
269.776001	96.523239
269.864014	96.514161
269.946014	96.509622
270.023987	96.502814
270.27301	96.516431
270.356995	96.520969
270.437988	96.530047
270.516998	96.532317
270.601013	96.530047
270.686005	96.527778
270.773987	96.527778
270.851013	96.530047
270.929993	96.525508
271.011993	96.516431
271.25	96.496006
271.326996	96.489197
271.414001	96.484658
271.497986	96.482389
271.582001	96.489197
271.662994	96.484658
271.740997	96.48012
271.821014	96.471042
271.901001	96.468773
271.983002	96.471042
272.234009	96.473311
272.319	96.475581
272.399994	96.482389
272.475006	96.48012
272.549011	96.48012
272.627991	96.468773
272.707001	96.464234
272.786987	96.455156
272.863007	96.459695
272.940002	96.466503
273.175995	96.450617
273.256012	96.44154
273.332001	96.43927
273.412994	96.432462
273.493011	96.427923
273.578003	96.427923
273.662994	96.430192
273.746002	96.430192
273.825012	96.432462
273.904999	96.43927
274.135986	96.446078
274.213989	96.443809
274.294006	96.443809
274.380005	96.448348
274.459015	96.448348
274.542999	96.443809
274.619995	96.434731
274.697998	96.423384
274.778992	96.414306
274.856995	96.409767
275.097992	96.414306
275.174988	96.418845
275.253998	96.423384
275.338013	96.430192
275.424011	96.423384
275.506012	96.414306
275.591003	96.405229
275.674988	96.412037
275.759003	96.412037
275.834015	96.402959
276.056	96.405229
276.138	96.412037
276.21701	96.412037
276.294006	96.409767
276.365997	96.407498
276.445007	96.405229
276.523987	96.39842
276.604004	96.391612
276.679993	96.393882
276.757996	96.39842
276.990997	96.393882
277.069	96.384804
277.151001	96.387073
277.234985	96.389343
277.316986	96.39842
277.394989	96.39842
277.473999	96.389343
277.549011	96.389343
277.626007	96.391612
277.700989	96.396151
277.94101	96.366648
278.016998	96.35984
278.091003	96.350762
278.161987	96.343954
278.239014	96.343954
278.320007	96.346224
278.403992	96.353032
278.485992	96.357571
278.565002	96.362109
278.641998	96.362109
278.881012	96.346224
278.960999	96.341685
279.036011	96.339415
279.110992	96.328068
279.187012	96.323529
279.266998	96.316721
279.350006	96.316721
279.440002	96.32126
279.529999	96.328068
279.61499	96.330338
279.838989	96.312182
279.915009	96.312182
279.994995	96.309913
280.075012	96.307643
280.153992	96.305374
280.234009	96.300835
280.312988	96.300835
280.394012	96.296296
280.471985	96.296296
280.553009	96.294027
280.790009	96.298566
280.869995	96.296296
280.95401	96.289488
281.033997	96.287218
281.114014	96.28268
281.187988	96.287218
281.265015	96.287218
281.338013	96.287218
281.411987	96.287218
281.492004	96.284949
281.73999	96.264524
281.822998	96.262255
281.903015	96.257716
281.980011	96.264524
282.062988	96.269063
282.149994	96.266794
282.237	96.262255
282.321014	96.250908
282.399994	96.248638
282.480988	96.248638
282.721008	96.248638
282.798004	96.250908
282.872986	96.253177
282.950012	96.253177
283.019012	96.246369
283.095001	96.239561
283.173004	96.237291
283.255005	96.239561
283.338989	96.246369
283.416992	96.259985
283.657013	96.253177
283.734009	96.248638
283.808014	96.250908
283.881989	96.248638
283.957001	96.248638
284.035004	96.248638
284.114014	96.250908
284.19101	96.257716
284.269989	96.253177
284.348999	96.24183
284.579987	96.223675
284.653992	96.214597
284.733002	96.20098
284.817993	96.196441
284.903015	96.194172
284.981995	96.191903
285.050995	96.187364
285.11499	96.187364
285.186005	96.187364
285.265015	96.187364
285.51001	96.182825
285.584015	96.180556
285.660004	96.176017
285.734985	96.176017
285.811005	96.178286
285.884003	96.194172
285.960999	96.196441
286.041992	96.196441
286.119995	96.189633
286.199005	96.182825
286.420013	96.164669
286.493988	96.148783
286.56601	96.146514
286.636993	96.146514
286.712006	96.155592
286.785004	96.157861
286.860992	96.153322
286.937012	96.151053
287.019012	96.146514
287.096985	96.148783
287.317993	96.139706
287.395996	96.132898
287.47699	96.128359
287.558014	96.12155
287.639008	96.119281
287.721985	96.12382
287.804993	96.12382
287.884003	96.126089
287.966003	96.117012
288.04599	96.117012
288.300995	96.112473
288.389008	96.103395
288.470001	96.089778
288.552002	96.080701
288.630005	96.08297
288.708008	96.092048
288.783997	96.096587
288.862	96.096587
288.940002	96.089778
289.015991	96.080701
289.256989	96.073892
289.341003	96.078431
289.421997	96.080701
289.498993	96.076162
289.579987	96.071623
289.660004	96.069354
289.744995	96.071623
289.822998	96.067084
289.908997	96.064815
289.993988	96.060276
290.256012	96.069354
290.335999	96.076162
290.419006	96.078431
290.505005	96.071623
290.596008	96.067084
290.679993	96.060276
290.763	96.048929
290.838989	96.039851
290.915985	96.037581
291.002991	96.035312
291.256012	96.012618
291.34201	96.012618
291.425995	96.010349
291.509003	96.00581
291.59201	95.999002
291.678009	95.996732
291.765015	96.001271
291.851013	96.010349
291.932007	96.00354
292.010986	96.001271
292.247009	95.989924
292.326996	95.987654
292.411011	95.989924
292.494995	95.987654
292.583008	95.987654
292.670013	95.983116
292.755005	95.978577
292.837006	95.971768
292.919006	95.967229
292.993988	95.967229
293.233002	95.96496
293.309998	95.96269
293.38501	95.960421
293.463013	95.958152
293.546997	95.969499
293.628998	95.96496
293.707001	95.955883
293.786987	95.949074
293.867004	95.951344
293.938995	95.953613
294.15799	95.960421
294.23999	95.96269
294.319	95.946805
294.395996	95.935457
294.473999	95.935457
294.549988	95.937727
294.627991	95.939996
294.704987	95.937727
294.782013	95.92411
294.859985	95.912763
295.104004	95.908225
295.18399	95.899147
295.265991	95.896877
295.348999	95.899147
295.431	95.896877
295.510986	95.896877
295.588989	95.890069
295.67099	95.88553
295.752014	95.883261
295.828003	95.883261
296.058014	95.883261
296.139008	95.878722
296.221008	95.878722
296.312012	95.871913
296.393005	95.867375
296.480011	95.867375
296.562988	95.865105
296.647003	95.867375
296.729004	95.869644
296.80899	95.867375
297.052002	95.856028
297.134003	95.856028
297.221985	95.853758
297.304993	95.84468
297.38501	95.840142
297.463013	95.833333
297.540985	95.831064
297.622009	95.826525
297.705994	95.824255
297.787994	95.819716
298.035004	95.799292
298.118011	95.801561
298.196014	95.799292
298.273987	95.803831
298.352997	95.801561
298.433014	95.799292
298.511993	95.790214
298.593994	95.787945
298.677002	95.781137
298.756012	95.778867
299.006012	95.769789
299.092987	95.762981
299.174988	95.753903
299.252991	95.756173
299.338013	95.762981
299.424988	95.772058
299.510986	95.772058
299.596008	95.762981
299.678009	95.756173
299.765991	95.749364
300.015991	95.738017
300.096008	95.731209
300.174988	95.724401
300.256012	95.722131
300.338013	95.719862
300.421997	95.724401
300.505005	95.72894
300.59201	95.72894
300.677002	95.72894
300.757996	95.722131
300.993988	95.717593
301.075012	95.713054
301.157013	95.708515
301.23999	95.699437
301.322998	95.699437
301.406006	95.694898
301.487	95.68809
301.571991	95.681282
301.656006	95.674473
301.739014	95.674473
301.980011	95.663126
302.05899	95.663126
302.140015	95.663126
302.225006	95.660857
302.308014	95.660857
302.395996	95.654048
302.476013	95.64724
302.552002	95.635893
302.623993	95.626815
302.695007	95.620008
302.934998	95.617738
303.016998	95.617738
303.096985	95.60866
303.177002	95.597313
303.256012	95.590505
303.334991	95.585966
303.415009	95.581427
303.497009	95.583696
303.584015	95.588235
303.670013	95.595044
303.910004	95.574618
303.990997	95.57008
304.06601	95.563272
304.143005	95.554194
304.221008	95.545116
304.30899	95.531499
304.395996	95.520153
304.477997	95.515614
304.559998	95.517883
304.645996	95.522422
304.904999	95.504267
304.984009	95.497458
305.059998	95.492919
305.140015	95.48838
305.21701	95.48838
305.299011	95.486111
305.377991	95.483841
305.459991	95.483841
305.540985	95.479303
305.617004	95.479303
305.845001	95.481572
305.927002	95.470225
306.006012	95.463417
306.07901	95.461147
306.160004	95.461147
306.240997	95.45207
306.322998	95.442992
306.403992	95.433914
306.483002	95.429376
306.565002	95.427106
306.804993	95.406681
306.886993	95.399873
306.971008	95.393064
307.054993	95.386256
307.134003	95.377179
307.212006	95.37264
307.295013	95.363562
307.381989	95.365831
307.466003	95.365831
307.546997	95.365831
307.78299	95.347676
307.868011	95.345407
307.950012	95.343137
308.035004	95.334059
308.118011	95.324982
308.205994	95.324982
308.291992	95.327251
308.376007	95.327251
308.45401	95.322712
308.53299	95.318173
308.77301	95.295479
308.85199	95.29094
308.932007	95.288671
309.020996	95.286402
309.105988	95.279593
309.19101	95.272785
309.273987	95.261438
309.355011	95.254629
309.441986	95.238743
309.523987	95.231935
309.756989	95.222857
309.832001	95.229666
309.912994	95.229666
309.997986	95.229666
310.088013	95.229666
310.173004	95.218318
310.251007	95.202433
310.321991	95.184278
310.394989	95.168391
310.473999	95.159314
310.705994	95.127542
310.776001	95.125272
310.85199	95.120733
310.93399	95.104847
311.015991	95.098039
311.09201	95.093501
311.17099	95.098039
311.255005	95.09577
311.341003	95.088961
311.424011	95.075345
311.670013	95.066267
311.753998	95.057189
311.830994	95.041304
311.911987	95.025418
311.996002	95.01861
312.084991	95.014071
312.177002	95.009532
312.26001	95.000453
312.339996	94.993645
312.417999	94.989107
312.674011	94.961874
312.756989	94.952796
312.838013	94.948257
312.924011	94.943718
313.011993	94.941449
313.106995	94.93691
313.196991	94.927833
313.287994	94.916485
313.377991	94.89833
313.462006	94.886982
313.723999	94.850672
313.81601	94.834785
313.903992	94.827977
313.993011	94.8189
314.083008	94.807552
314.177002	94.793936
314.269012	94.791667
314.362	94.796206
314.45401	94.796206
314.54599	94.789397
314.804993	94.748548
314.888	94.725853
314.971985	94.709967
315.059998	94.689543
315.14801	94.680464
315.238007	94.675926
315.328003	94.669117
315.415985	94.66004
315.509003	94.644154
315.597992	94.628268
315.835999	94.582879
315.919006	94.576071
315.997009	94.569263
316.079987	94.566993
316.165009	94.564724
316.252014	94.555646
316.335999	94.544299
316.420013	94.528413
316.5	94.514796
316.579987	94.49891
316.826996	94.467139
316.915985	94.46033
317	94.453522
317.083008	94.442175
317.157013	94.439905
317.234009	94.428558
317.320007	94.410403
317.40799	94.385439
317.497009	94.362745
317.578003	94.344589
317.822998	94.290123
317.90799	94.274237
317.988007	94.253812
318.06601	94.233388
318.14801	94.212963
318.235992	94.194807
318.330994	94.181191
318.420013	94.160766
318.505005	94.140341
318.588013	94.113108
318.835999	94.058642
318.923004	94.033678
319.007996	94.015522
319.09201	93.999637
319.175995	93.98602
319.261993	93.972404
319.345001	93.951979
319.427002	93.933823
319.509003	93.920207
319.596008	93.902051
319.856995	93.843046
319.936005	93.818083
320.019012	93.790849
320.097992	93.763617
320.183014	93.74773
320.264008	93.738653
320.346985	93.722767
320.428009	93.695533
320.507996	93.661492
320.591003	93.63199
320.833008	93.55483
320.910004	93.534404
320.98999	93.509441
321.063995	93.482208
321.139008	93.457244
321.213989	93.439088
321.29599	93.414125
321.377991	93.391431
321.463013	93.364197
321.545013	93.343772
321.769012	93.262073
321.846008	93.239379
321.928009	93.225763
322.003998	93.205338
322.084015	93.175835
322.160004	93.141793
322.239014	93.105483
322.321014	93.07825
322.406006	93.044208
322.490997	93.016975
322.737	92.933006
322.822998	92.898965
322.90799	92.862654
322.983002	92.828613
323.05899	92.796841
323.138	92.771877
323.220001	92.744644
323.300995	92.724219
323.377991	92.699255
323.454987	92.6811
323.675995	92.606209
323.753998	92.565359
323.834015	92.52224
323.915985	92.485929
324.002991	92.44508
324.084015	92.415577
324.15799	92.386075
324.230011	92.370189
324.299988	92.347495
324.377991	92.3248
324.610992	92.24764
324.686005	92.218137
324.760986	92.184096
324.835999	92.147785
324.90799	92.116013
324.980988	92.088779
325.056	92.063816
325.131012	92.032044
325.208008	91.995733
325.281006	91.966231
325.48999	91.895879
325.562988	91.861837
325.636993	91.825526
325.709991	91.789215
325.782013	91.761982
325.852997	91.741558
325.927002	91.716594
326.006012	91.689361
326.084991	91.659859
326.164001	91.632625
326.393005	91.555465
326.475006	91.525962
326.552002	91.49419
326.631989	91.464687
326.705994	91.439724
326.779999	91.417029
326.852997	91.389796
326.932007	91.358025
327.009003	91.333061
327.09201	91.312635
327.339996	91.246822
327.420013	91.219589
327.502014	91.194626
327.582001	91.169662
327.661011	91.146968
327.744995	91.117465
327.82901	91.087963
327.917999	91.062999
328.002991	91.040305
328.088013	91.017611
328.343994	90.942719
328.437012	90.922295
328.528015	90.895061
328.610992	90.870098
328.687988	90.836056
328.770996	90.815632
328.852997	90.795206
328.938995	90.779321
329.026001	90.758896
329.112	90.738471
329.355011	90.661311
329.437988	90.631808
329.519012	90.606845
329.605011	90.58642
329.687012	90.563725
329.765015	90.543301
329.842987	90.516068
329.924011	90.495642
330.01001	90.491103
330.092987	90.484296
330.329987	90.407134
330.416992	90.373094
330.497009	90.34586
330.574005	90.323166
330.652008	90.307281
330.731995	90.295933
330.812012	90.280047
330.890991	90.257352
330.977997	90.22785
331.067993	90.200618
331.294006	90.141612
331.371002	90.118917
331.455994	90.084876
331.537994	90.062181
331.618011	90.039488
331.695007	90.025871
331.77301	90.003177
331.856995	89.982752
331.941986	89.955519
332.026001	89.932825
332.265015	89.864742
332.347992	89.844317
332.432007	89.821623
332.515015	89.796659
332.593994	89.773965
332.671997	89.75354
332.747009	89.728577
332.824005	89.710422
332.90799	89.694535
332.992004	89.687726
333.238007	89.624183
333.317993	89.590141
333.399994	89.567447
333.480011	89.544753
333.562012	89.524327
333.640015	89.501634
333.714996	89.481209
333.79599	89.463054
333.873993	89.447167
333.963013	89.431281
334.197998	89.372276
334.276001	89.349583
334.359985	89.331427
334.445007	89.311002
334.526001	89.297385
334.605988	89.281499
334.687988	89.261075
334.774994	89.249727
334.862	89.227033
334.941986	89.211146
335.181	89.147603
335.264008	89.122639
335.354004	89.102215
335.437012	89.079521
335.518005	89.059095
335.596985	89.034132
335.683014	89.011437
335.764008	88.995552
335.841003	88.984204
335.921997	88.968319
336.173004	88.902506
336.252014	88.88208
336.330994	88.861655
336.411987	88.841231
336.497009	88.827615
336.582001	88.811728
336.667999	88.80265
336.756012	88.791303
336.839996	88.773148
336.915009	88.757262
337.147003	88.695988
337.230988	88.668755
337.308014	88.646061
337.385986	88.614287
337.466003	88.593863
337.545013	88.580247
337.626007	88.562092
337.712006	88.539396
337.798004	88.509894
337.88501	88.491739
338.127991	88.430465
338.210999	88.407771
338.290985	88.389614
338.372986	88.378268
338.45401	88.355574
338.533997	88.33288
338.615997	88.310184
338.696014	88.292029
338.778015	88.269335
338.855988	88.253449
339.102997	88.203522
339.19101	88.17402
339.269989	88.155865
339.346985	88.135439
339.428009	88.115014
339.506012	88.099129
339.589996	88.080974
339.665985	88.065087
339.746002	88.046931
339.828003	88.028776
340.070007	87.990196
340.144012	87.965232
340.221008	87.949347
340.302002	87.93573
340.385986	87.919844
340.475006	87.906227
340.559998	87.888072
340.64801	87.865377
340.730988	87.840414
340.813995	87.806372
341.05899	87.772331
341.147003	87.765523
341.231995	87.745097
341.321991	87.715595
341.40799	87.683824
341.498993	87.658859
341.584991	87.633896
341.669006	87.613471
341.747986	87.597585
341.828003	87.586239
342.096008	87.522694
342.184998	87.497731
342.272003	87.470497
342.358002	87.454612
342.440002	87.438725
342.526001	87.420569
342.606995	87.411492
342.691986	87.395606
342.773987	87.379721
342.860992	87.354756
343.110992	87.273058
343.191986	87.254901
343.269989	87.243555
343.355011	87.241284
343.445007	87.234477
343.535004	87.227669
343.618988	87.209513
343.697998	87.191358
343.776001	87.164124
343.856995	87.134622
344.105011	87.06654
344.187988	87.043845
344.268005	87.02342
344.350006	86.998456
344.432007	86.980301
344.511993	86.959877
344.595001	86.94626
344.674988	86.925835
344.76001	86.903141
344.841003	86.880446
345.069	86.810095
345.152008	86.7874
345.234985	86.769244
345.319	86.753359
345.40799	86.737473
345.496002	86.719316
345.57901	86.698893
345.657013	86.683006
345.730988	86.664851
345.808014	86.644425
346.028015	86.576344
346.104004	86.553649
346.179993	86.535494
346.256989	86.515069
346.335999	86.494643
346.419006	86.478758
346.503998	86.462872
346.585999	86.444716
346.662994	86.417483
346.737	86.39252
346.966003	86.349401
347.049011	86.335784
347.131012	86.317629
347.213013	86.297204
347.29599	86.276779
347.377991	86.256353
347.453003	86.23366
347.528015	86.210965
347.605988	86.19281
347.686005	86.176924
347.924011	86.120188
348.011993	86.099764
348.095001	86.083878
348.175995	86.067992
348.255005	86.047567
348.338013	86.020334
348.421997	85.988563
348.510986	85.965868
348.600006	85.949982
348.69101	85.934095
348.941986	85.881898
349.023987	85.866013
349.106995	85.845588
349.191986	85.820624
349.282013	85.795661
349.369995	85.779775
349.455994	85.766158
349.536987	85.750273
349.622009	85.725308
349.713989	85.704884
349.996002	85.659495
350.080994	85.63907
350.162994	85.620914
350.253998	85.593681
350.341003	85.577796
350.428009	85.564179
350.516998	85.552832
350.609985	85.527868
350.701996	85.502905
350.791992	85.471132
351.041992	85.409859
351.128998	85.387163
351.214996	85.36447
351.308014	85.346314
351.407013	85.32362
351.502991	85.300925
351.588989	85.275962
351.67099	85.255537
351.755005	85.237381
351.843994	85.221496
352.110992	85.157952
352.197998	85.139796
352.285004	85.119371
352.369995	85.101216
352.451996	85.080791
352.53299	85.064906
352.612	85.04448
352.691986	85.024055
352.78299	84.994554
352.869995	84.976398
353.112	84.928741
353.191986	84.906045
353.272003	84.883351
353.354004	84.862926
353.438995	84.837962
353.527008	84.815269
353.612	84.788035
353.695007	84.765342
353.770996	84.749455
353.848999	84.731299
354.09201	84.667756
354.166992	84.647331
354.237	84.629176
354.307007	84.60875
354.375	84.586057
354.449005	84.567901
354.523987	84.547476
354.598999	84.53159
354.673004	84.511166
354.742004	84.483932
354.947998	84.415849
355.023987	84.399963
355.097992	84.379539
355.171997	84.356844
355.246002	84.331882
355.319	84.313725
355.397003	84.293301
355.472992	84.279684
355.549011	84.259259
355.625	84.241104
355.842987	84.17529
355.921997	84.157135
355.997986	84.13671
356.071014	84.118554
356.144012	84.09813
356.221985	84.077705
356.303009	84.052741
356.384003	84.027778
356.466003	84.007353
356.54599	83.989197
356.778015	83.914307
356.859009	83.889343
356.941986	83.871187
357.026001	83.855301
357.112	83.839415
357.197998	83.82353
357.278992	83.800835
357.360992	83.782681
357.44101	83.759985
357.524994	83.737291
357.77301	83.660131
357.859985	83.632898
357.949005	83.603395
358.033997	83.5807
358.121002	83.558006
358.205994	83.53758
358.29599	83.519426
358.380005	83.494463
358.468994	83.474037
358.553986	83.453613
358.809998	83.408224
358.899994	83.38553
358.989014	83.362837
359.082001	83.340141
359.165985	83.319717
359.252014	83.306101
359.337006	83.287945
359.427002	83.272058
359.515991	83.251633
359.60199	83.231209
359.865997	83.165396
359.950989	83.149509
360.033997	83.124546
360.117004	83.097313
360.201996	83.07008
360.285004	83.049656
360.371002	83.031498
360.45401	83.008804
360.537994	82.986111
360.621002	82.961147
360.865997	82.897604
360.953003	82.868101
361.037994	82.838598
361.118011	82.809095
361.199005	82.784132
361.279999	82.765976
361.365997	82.74782
361.447998	82.729666
361.528992	82.713779
361.610992	82.688816
361.856995	82.620733
361.938995	82.602577
362.019989	82.579884
362.096008	82.55946
362.175995	82.541304
362.26001	82.525417
362.35199	82.502724
362.44101	82.475489
362.528992	82.450527
362.609985	82.427832
362.862	82.362019
362.950989	82.343863
363.037994	82.325708
363.127014	82.305283
363.220001	82.278049
363.313995	82.253086
363.402008	82.221313
363.490997	82.20089
363.575012	82.182734
363.661011	82.16231
363.924988	82.103304
364.006989	82.085148
364.084991	82.057915
364.165985	82.028412
364.247986	81.998911
364.337006	81.976215
364.42099	81.960331
364.503998	81.942175
364.585999	81.921749
364.667999	81.894516
364.911987	81.840052
364.993988	81.810547
365.075989	81.781046
365.15799	81.751541
365.235992	81.728849
365.31601	81.712963
365.395996	81.699347
365.475006	81.672112
365.552002	81.64715
365.626007	81.619917
365.868011	81.558641
365.942993	81.53141
366.018005	81.508715
366.096008	81.492828
366.178009	81.467863
366.26001	81.442902
366.338013	81.413399
366.414001	81.392973
366.488007	81.377087
366.55899	81.354395
366.792999	81.270424
366.876007	81.243191
366.954987	81.21369
367.033997	81.190994
367.113007	81.17284
367.186005	81.159222
367.256012	81.150145
367.332001	81.131989
367.412994	81.113834
367.497009	81.086601
367.756012	81.013979
367.835999	80.986746
367.915985	80.959513
367.993988	80.93228
368.07901	80.907316
368.174011	80.884621
368.265991	80.861929
368.355988	80.841501
368.44101	80.821077
368.522003	80.798384
368.773987	80.721224
368.86499	80.69626
368.953003	80.675835
369.044006	80.653141
369.131012	80.632715
369.216003	80.610022
369.303009	80.587328
369.390991	80.564632
369.484009	80.539669
369.580994	80.516975
369.864014	80.442083
369.950012	80.41485
370.037994	80.392157
370.131012	80.374002
370.222992	80.355844
370.321991	80.328611
370.417999	80.294573
370.510986	80.258259
370.600006	80.235567
370.69101	80.219681
370.955994	80.162945
371.044006	80.133442
371.131989	80.101671
371.21701	80.076706
371.303009	80.049473
371.388	80.026779
371.473999	80.001814
371.562012	79.979122
371.654999	79.956427
371.748993	79.931461
372.018005	79.86338
372.098999	79.836147
372.181	79.813452
372.264008	79.786221
372.348999	79.763525
372.436005	79.738562
372.526001	79.71133
372.614014	79.686365
372.700012	79.66367
372.787994	79.636438
373.03299	79.5502
373.114014	79.529774
373.203003	79.50708
373.292999	79.484386
373.371002	79.459423
373.450012	79.436728
373.528992	79.411766
373.613007	79.386801
373.696014	79.359568
373.779999	79.330065
374.019989	79.257442
374.096985	79.241556
374.175995	79.223402
374.256989	79.200708
374.335999	79.173475
374.412994	79.148512
374.493011	79.11447
374.571991	79.084969
374.653015	79.060003
374.734009	79.037308
374.962006	78.957878
375.040009	78.935186
375.121002	78.910221
375.201996	78.885258
375.277008	78.858025
375.352997	78.835329
375.427002	78.810366
375.494995	78.787672
375.563995	78.762709
375.641998	78.733206
375.876007	78.649237
375.949005	78.626543
376.018005	78.608389
376.083008	78.590233
376.153992	78.567537
376.233002	78.544842
376.322998	78.515341
376.407013	78.48584
376.484009	78.458607
376.558014	78.435911
376.778015	78.365559
376.847992	78.340595
376.924011	78.320169
377.001007	78.299746
377.075989	78.274782
377.144989	78.247549
377.216003	78.215776
377.289001	78.188543
377.372009	78.16358
377.454987	78.140886
377.712006	78.061457
377.790009	78.031952
377.863007	77.997913
377.937012	77.970678
378.022003	77.952522
378.109009	77.934368
378.197998	77.911674
378.285004	77.886709
378.372986	77.861746
378.460999	77.836782
378.709015	77.746006
378.79599	77.714233
378.882996	77.689268
378.971008	77.664307
379.058014	77.637074
379.151001	77.614378
379.243011	77.584877
379.338989	77.557644
379.429993	77.530411
379.519989	77.507715
379.774994	77.437363
379.862	77.419209
379.950012	77.401052
380.040009	77.373819
380.127991	77.346586
380.216003	77.319353
380.303986	77.28985
380.394012	77.25808
380.480988	77.230846
380.572998	77.205883
380.851013	77.133261
380.944	77.106026
381.040009	77.076525
381.132996	77.049292
381.227997	77.022058
381.316986	76.994825
381.404999	76.97213
381.487	76.949438
381.574005	76.926743
381.662994	76.899509
381.933014	76.82008
382.019012	76.797386
382.108002	76.767881
382.196014	76.736111
382.28299	76.713417
382.371002	76.686184
382.459991	76.661219
382.549011	76.627178
382.635986	76.597675
382.720001	76.568174
382.963989	76.491013
383.04599	76.463779
383.131989	76.436546
383.210999	76.411583
383.289001	76.388887
383.372009	76.363924
383.457001	76.332153
383.544006	76.300381
383.627014	76.273148
383.707001	76.245914
383.94101	76.157408
384.015991	76.125633
384.093994	76.098402
384.171997	76.075708
384.253998	76.053013
384.329987	76.032589
384.404999	76.005356
384.481995	75.980392
384.562012	75.95089
384.640991	75.923656
384.884003	75.839687
384.959991	75.810184
385.03299	75.776144
385.109985	75.748911
385.192993	75.717138
385.277008	75.685368
385.359009	75.655863
385.434998	75.630899
385.518005	75.608206
385.596008	75.578705
385.845001	75.492466
385.929993	75.467501
386.010986	75.442537
386.092987	75.415304
386.178986	75.385803
386.260986	75.354031
386.351013	75.326797
386.440002	75.304102
386.533997	75.27914
386.619995	75.249636
386.863007	75.167936
386.950989	75.142973
387.040009	75.11574
387.126007	75.081699
387.208008	75.047657
387.289001	75.022696
387.369995	75.002268
387.454987	74.979576
387.546997	74.954611
387.634003	74.931917
387.903992	74.852486
387.990997	74.820715
388.075989	74.788942
388.161011	74.75717
388.244995	74.725399
388.335999	74.698166
388.428009	74.668663
388.52301	74.645969
388.615997	74.621006
388.696991	74.591503
388.942993	74.498455
389.036987	74.471224
389.131989	74.446259
389.225006	74.421295
389.312988	74.391792
389.395996	74.364561
389.483002	74.332787
389.576996	74.303286
389.670013	74.278322
389.759003	74.253357
390.027008	74.16939
390.112	74.135347
390.192993	74.103575
390.273987	74.076342
390.359009	74.05365
390.450012	74.028685
390.540009	73.999184
390.627014	73.969679
390.708008	73.942446
390.78299	73.915213
391.03299	73.833515
391.119995	73.806282
391.203003	73.77224
391.287994	73.745007
391.372986	73.717773
391.454987	73.69508
391.540985	73.672386
391.627014	73.638344
391.710999	73.604303
391.791992	73.570261
392.042999	73.481752
392.126007	73.440903
392.20401	73.406862
392.28299	73.379631
392.368011	73.354666
392.451996	73.33197
392.539001	73.307007
392.623993	73.284313
392.709015	73.25481
392.796997	73.227577
393.048004	73.14361
393.123993	73.116377
393.204987	73.089144
393.290009	73.059639
393.377991	73.025599
393.463013	72.993828
393.541992	72.959785
393.622986	72.925743
393.703003	72.891703
393.787994	72.8622
394.040985	72.796385
394.127991	72.769154
394.216003	72.737383
394.302002	72.705608
394.381989	72.676107
394.457001	72.646603
394.533997	72.621641
394.610992	72.598946
394.687012	72.573982
394.760986	72.549019
394.980988	72.46505
395.062012	72.42874
395.143005	72.394699
395.223999	72.360657
395.309998	72.331154
395.391998	72.30619
395.468994	72.27669
395.541992	72.249456
395.618988	72.219952
395.701996	72.188181
395.963989	72.092865
396.050995	72.065632
396.135986	72.042936
396.220001	72.020241
396.303009	71.993011
396.384003	71.963507
396.466003	71.931736
396.553009	71.904501
396.644012	71.87273
396.737	71.845497
396.996002	71.754719
397.076996	71.725218
397.164001	71.695715
397.253998	71.666212
397.345001	71.634441
397.43399	71.607208
397.518005	71.579975
397.605988	71.548203
397.696014	71.51189
397.786011	71.480118
398.054993	71.40296
398.144989	71.368917
398.234009	71.332607
398.320007	71.303102
398.399994	71.278139
398.483002	71.257715
398.570007	71.230482
398.661011	71.19644
398.752991	71.162399
398.843994	71.128359
399.110992	71.030771
399.194	71.00581
399.286011	70.978577
399.377014	70.951342
399.468994	70.921841
399.556	70.899147
399.638	70.878721
399.721008	70.856028
399.809998	70.828794
399.89801	70.792484
400.165009	70.697168
400.255005	70.672203
400.339996	70.64724
400.416992	70.617739
400.502991	70.588234
400.589996	70.558733
400.683014	70.533768
400.770996	70.504267
400.855988	70.470224
400.94101	70.440723
401.196991	70.345406
401.287994	70.320442
401.381012	70.293209
401.472992	70.263708
401.561005	70.227394
401.64801	70.188816
401.730011	70.159313
401.806	70.13435
401.886993	70.113926
401.975006	70.082153
402.230988	69.991377
402.312988	69.959602
402.395996	69.925562
402.476013	69.898329
402.556	69.873365
402.638	69.846132
402.718994	69.80982
402.803009	69.77351
402.885986	69.744009
402.968994	69.723585
403.209015	69.6555
403.290985	69.625998
403.375	69.594227
403.462006	69.564722
403.549988	69.528412
403.630005	69.489832
403.705994	69.458059
403.78299	69.433098
403.863007	69.410402
403.949005	69.380901
404.184998	69.290123
404.266998	69.267429
404.346008	69.240196
404.42099	69.210691
404.494995	69.178921
404.571991	69.147148
404.652008	69.117647
404.734985	69.092682
404.811005	69.065451
404.890015	69.031408
405.117004	68.931555
405.195007	68.908859
405.269012	68.886166
405.343994	68.854393
405.417999	68.818083
405.497009	68.78631
405.574005	68.763617
405.653015	68.745461
405.726013	68.720497
405.799988	68.690996
406.026001	68.611563
406.106995	68.58433
406.182007	68.552559
406.256989	68.525326
406.328003	68.491285
406.403015	68.461782
406.480988	68.427742
406.562988	68.398237
406.643005	68.366467
406.722992	68.336964
406.938995	68.257532
407.018005	68.225761
407.102997	68.191721
407.187988	68.157679
407.273987	68.121368
407.356995	68.094135
407.438995	68.075979
407.519012	68.060093
407.60199	68.037401
407.692993	68.005629
407.963989	67.923927
408.049011	67.892159
408.128998	67.860386
408.209015	67.830883
408.294006	67.80592
408.385986	67.780956
408.480011	67.74918
408.566986	67.715141
408.656006	67.685638
408.740997	67.656136
408.990997	67.581245
409.078003	67.549473
409.164001	67.5177
409.25	67.488197
409.334015	67.458698
409.415009	67.431461
409.492004	67.395153
409.574005	67.370186
409.656006	67.342953
409.746002	67.327068
410.006012	67.258987
410.092987	67.229485
410.178986	67.202251
410.26001	67.172749
410.341003	67.140976
410.424988	67.120552
410.515015	67.102394
410.60199	67.079704
410.68399	67.050198
410.757996	67.013889
410.980011	66.920841
411.069	66.900417
411.153992	66.873184
411.23999	66.85276
411.325012	66.827797
411.404999	66.807369
411.484009	66.782406
411.563995	66.755173
411.647003	66.732479
411.731995	66.709785
411.96701	66.619007
412.046997	66.589504
412.125	66.557732
412.20401	66.532772
412.28299	66.505539
412.359009	66.482841
412.437012	66.455608
412.515015	66.4193
412.598999	66.385258
412.683014	66.355755
412.908997	66.294479
412.984009	66.267246
413.06601	66.233208
413.144989	66.199165
413.223999	66.169662
413.307007	66.144699
413.382996	66.124271
413.463989	66.101578
413.539001	66.078884
413.621002	66.051651
413.855011	65.972221
413.931	65.954067
414.006989	65.935909
414.088989	65.915485
414.171997	65.888252
414.257996	65.858749
414.338989	65.826981
414.420013	65.799747
414.5	65.770241
414.579987	65.743008
414.829987	65.629536
414.920013	65.595497
415.001007	65.54784
415.079987	65.511528
415.160004	65.484295
415.243988	65.459332
415.321014	65.434368
415.399994	65.404865
415.47699	65.382172
415.563995	65.357204
415.847992	65.282314
415.946014	65.252815
416.036987	65.227852
416.123993	65.205154
416.209991	65.180191
416.302002	65.157497
416.395996	65.132534
416.490997	65.10984
416.585999	65.087147
416.679993	65.055374
416.958008	64.978214
417.048004	64.953251
417.134003	64.923744
417.21701	64.896511
417.304993	64.871552
417.395996	64.851124
417.484009	64.83297
417.571014	64.817081
417.658997	64.794392
417.748993	64.771694
418.016998	64.703609
418.109985	64.67865
418.199005	64.653687
418.285004	64.630989
418.365997	64.606026
418.447998	64.578793
418.531006	64.551559
418.617004	64.5266
418.703003	64.501633
418.792999	64.476669
419.037994	64.413128
419.125	64.39043
419.214996	64.365467
419.303986	64.347313
419.394012	64.324619
419.485992	64.301926
419.575012	64.272423
419.660004	64.249725
419.744995	64.227036
419.835999	64.199799
420.114014	64.129448
420.20401	64.109024
420.290985	64.088596
420.377014	64.065903
420.455994	64.043209
420.542999	64.020515
420.631989	63.997822
420.722992	63.977394
420.811005	63.9547
420.902008	63.929737
421.165985	63.863922
421.256989	63.838963
421.346008	63.811726
421.434998	63.786766
421.519012	63.766338
421.605988	63.750454
421.692993	63.730026
421.776001	63.702793
421.858002	63.677834
421.942993	63.650597
422.203003	63.584785
422.289001	63.566628
422.371002	63.546204
422.451996	63.521244
422.53299	63.505356
422.610992	63.487198
422.696014	63.466774
422.773987	63.44408
422.856995	63.416847
422.937012	63.394154
423.167999	63.332878
423.243011	63.316994
423.324005	63.296566
423.404999	63.276146
423.487	63.251179
423.567993	63.226215
423.644989	63.198982
423.721985	63.174019
423.79599	63.153595
423.872986	63.128632
424.096008	63.067356
424.169006	63.046928
424.246002	63.026508
424.321991	63.01289
424.397003	63.001545
424.473999	62.987926
424.553986	62.965233
424.634003	62.93346
424.713989	62.906227
424.796997	62.883533
425.062012	62.819988
425.14801	62.797295
425.230988	62.77914
425.315002	62.765522
425.39801	62.747364
425.479004	62.73148
425.562988	62.713326
425.649994	62.692902
425.742004	62.665668
425.833008	62.636162
426.076996	62.57262
426.160004	62.554466
426.246002	62.536312
426.335999	62.522694
426.425995	62.5
426.514008	62.484112
426.60199	62.461418
426.684998	62.443264
426.769012	62.42057
426.845001	62.395607
427.105011	62.329792
427.190002	62.311638
427.270996	62.300289
427.346985	62.284405
427.424011	62.261711
427.506012	62.234474
427.588013	62.209511
427.675995	62.191357
427.76001	62.170933
427.843994	62.14143
428.088989	62.082424
428.166992	62.062
428.242004	62.048386
428.321014	62.037033
428.39801	62.021149
428.480011	62.005264
428.559998	61.982567
428.640991	61.959877
428.720001	61.93491
428.796997	61.91449
429.024994	61.848671
429.101013	61.832787
429.181	61.816898
429.26001	61.814632
429.341003	61.798748
429.419006	61.787399
429.493988	61.764706
429.572998	61.742012
429.651001	61.721584
429.729004	61.701164
429.967987	61.635345
430.048004	61.619461
430.121002	61.605846
430.200989	61.589962
430.276001	61.571804
430.354004	61.55365
430.428986	61.535496
430.505005	61.519608
430.582001	61.503723
430.65799	61.492374
430.890991	61.440178
430.968994	61.419754
431.044006	61.4016
431.119995	61.381172
431.200989	61.363018
431.279999	61.34713
431.356995	61.335781
431.429993	61.324436
431.502991	61.306282
431.575989	61.281315
431.812988	61.222313
431.89801	61.201885
431.980011	61.179192
432.057007	61.163303
432.140015	61.142883
432.221985	61.124729
432.30899	61.108845
432.386993	61.090683
432.468994	61.074799
432.548004	61.056644
432.802002	61.015797
432.890015	60.995369
432.973999	60.972675
433.063995	60.954521
433.15799	60.934093
433.251007	60.91367
433.337006	60.895512
433.419006	60.877357
433.502014	60.863743
433.588013	60.845589
433.852997	60.813816
433.941986	60.802471
434.032013	60.786583
434.121002	60.766159
434.205994	60.750271
434.290009	60.732117
434.372009	60.720768
434.459015	60.700344
434.542999	60.68446
434.631012	60.675381
434.888	60.62772
434.975006	60.6073
435.062012	60.589146
435.148987	60.570984
435.23999	60.55283
435.328003	60.534676
435.416992	60.516518
435.505005	60.505173
435.588989	60.493824
435.679993	60.47794
435.963989	60.421204
436.054993	60.407589
436.144012	60.391705
436.234985	60.37582
436.325012	60.362202
436.414001	60.350849
436.503998	60.341774
436.592987	60.32589
436.686005	60.312271
436.778015	60.291847
437.03299	60.248726
437.122009	60.237381
437.216003	60.223763
437.30899	60.203342
437.39801	60.180645
437.488007	60.160221
437.572998	60.146603
437.65799	60.137524
437.740997	60.128448
437.829987	60.117104
438.102997	60.067173
438.196014	60.051289
438.289001	60.0354
438.384003	60.024055
438.473999	60.012707
438.55899	59.999092
438.640991	59.987743
438.721985	59.974129
438.804993	59.955971
438.891998	59.937817
439.160004	59.88335
439.25	59.869732
439.339996	59.851578
439.431	59.833424
439.516998	59.822075
439.60199	59.81073
439.678009	59.799381
439.752991	59.783493
439.830994	59.767609
439.911011	59.751724
440.160004	59.708607
440.243011	59.697254
440.326996	59.683643
440.410004	59.670025
440.492004	59.649597
440.575989	59.633713
440.660004	59.615559
440.742004	59.599674
440.82901	59.583786
440.915985	59.570168
441.151001	59.52705
441.226013	59.508896
441.302002	59.493008
441.380005	59.479393
441.459015	59.463509
441.531006	59.45216
441.597992	59.438545
441.665985	59.422661
441.734009	59.404499
441.806	59.386345
442.041992	59.350033
442.118011	59.331879
442.191986	59.315994
442.269989	59.309185
442.35199	59.29784
442.431	59.284222
442.509003	59.270603
442.583008	59.256992
442.661011	59.241104
442.742004	59.22522
442.984985	59.186638
443.067993	59.175289
443.158997	59.161671
443.243011	59.150326
443.324005	59.136707
443.399994	59.120823
443.472992	59.109478
443.553986	59.100399
443.63501	59.086781
443.722992	59.068626
443.984009	59.034584
444.06601	59.0187
444.148987	59.000546
444.233002	58.986927
444.31601	58.973312
444.395996	58.966503
444.480011	58.957428
444.567993	58.94381
444.657013	58.927925
444.743988	58.914307
444.998993	58.887074
445.085999	58.880264
445.183014	58.873455
445.277008	58.857571
445.368011	58.846222
445.457001	58.830334
445.54599	58.816723
445.636993	58.800835
445.726013	58.78495
445.80899	58.771332
446.069	58.72821
446.158997	58.712326
446.25	58.696438
446.338989	58.685093
446.425995	58.676018
446.514008	58.671474
446.601013	58.664669
446.68399	58.648781
446.77301	58.632896
446.855988	58.617008
447.117004	58.564816
447.213989	58.548931
447.306	58.537579
447.397003	58.526234
447.484985	58.512615
447.575012	58.50127
447.661987	58.494461
447.752014	58.489922
447.839996	58.483112
447.93399	58.469501
448.209015	58.42411
448.292999	58.417301
448.381012	58.405956
448.466003	58.396873
448.556	58.390072
448.641998	58.378719
448.726013	58.365105
448.80899	58.344681
448.890991	58.328796
448.979004	58.317444
449.252991	58.276596
449.338989	58.265251
449.423004	58.253902
449.502991	58.242558
449.584991	58.233479
449.665985	58.21986
449.751007	58.206245
449.838013	58.190357
449.928986	58.176739
450.014008	58.165394
450.26001	58.14497
450.346985	58.133625
450.43399	58.122276
450.522003	58.110928
450.605988	58.099583
450.684998	58.083698
450.765991	58.07235
450.848999	58.054195
450.937988	58.042843
451.019012	58.026958
451.263	58.008804
451.346985	58.001995
451.427002	57.986111
451.514008	57.977032
451.60199	57.965687
451.686005	57.958878
451.764008	57.945259
451.84201	57.931644
451.925995	57.915756
452.018005	57.904411
452.277008	57.886257
452.363007	57.870373
452.450012	57.849945
452.539001	57.831791
452.631012	57.820442
452.722992	57.813633
452.81601	57.806828
452.903992	57.800018
452.996002	57.793209
453.089996	57.784134
453.362	57.750088
453.449005	57.738743
453.536011	57.725124
453.622009	57.70697
453.708008	57.693356
453.795013	57.688816
453.88501	57.684277
453.977997	57.677467
454.071991	57.666122
454.160004	57.652504
454.425995	57.609383
454.514008	57.604847
454.598999	57.595772
454.683014	57.586693
454.766998	57.573074
454.855011	57.561726
454.944	57.550381
455.028992	57.541302
455.114014	57.529953
455.197998	57.518608
455.440002	57.480026
455.518005	57.466412
455.596985	57.455067
455.678986	57.450523
455.761993	57.445988
455.848999	57.432369
455.934998	57.421024
456.018005	57.40514
456.104004	57.393791
456.188995	57.384712
456.431	57.339325
456.513	57.330246
456.593994	57.316628
456.673004	57.307552
456.75	57.296207
456.829987	57.289398
456.911987	57.280319
456.994995	57.266701
457.074005	57.253086
457.157013	57.246277
457.407013	57.241741
457.490997	57.239471
457.571014	57.228123
457.649994	57.212234
457.723999	57.19635
457.803009	57.180466
457.884003	57.171387
457.964996	57.166847
458.042999	57.171387
458.125	57.160038
458.369995	57.114651
458.450012	57.110111
458.529999	57.101036
458.609985	57.087418
458.687012	57.076073
458.763	57.069263
458.842987	57.060184
458.924011	57.048836
459.003998	57.028412
459.082001	57.010254
459.329987	56.9921
459.410004	56.983025
459.484009	56.967136
459.553986	56.955791
459.630005	56.942177
459.708008	56.933098
459.790009	56.919479
459.868988	56.908131
459.944	56.901325
460.019989	56.894516
460.263	56.874092
460.346985	56.865013
460.431	56.853668
460.518005	56.844585
460.600006	56.84005
460.681	56.828701
460.756989	56.817356
460.835999	56.796928
460.917999	56.783318
461	56.769699
461.252014	56.740196
461.334991	56.731117
461.419006	56.726578
461.507996	56.722042
461.596008	56.715233
461.684998	56.701614
461.77301	56.688
461.862	56.676651
461.945007	56.674381
462.028015	56.674381
462.279999	56.644878
462.368011	56.633533
462.450989	56.622185
462.537994	56.61084
462.630005	56.597221
462.717987	56.585876
462.799011	56.574528
462.877014	56.565449
462.963013	56.55183
463.053009	56.547295
463.325012	56.529137
463.415985	56.520061
463.498993	56.501907
463.587006	56.488289
463.674988	56.47921
463.761993	56.476944
463.847992	56.476944
463.932007	56.465595
464.019012	56.458786
464.105988	56.445171
464.369995	56.417934
464.455994	56.408859
464.544006	56.397514
464.632996	56.386166
464.725006	56.372547
464.81601	56.361202
464.902008	56.358932
464.987	56.354393
465.066986	56.349857
465.144012	56.333969
465.394989	56.313541
465.477997	56.304466
465.550995	56.293118
465.625	56.284039
465.707001	56.281773
465.795013	56.272694
465.881989	56.261345
465.96701	56.24773
466.046997	56.243191
466.130005	56.238651
466.377014	56.1978
466.462006	56.193264
466.556	56.186455
466.649994	56.181915
466.740997	56.17057
466.829987	56.161491
466.916992	56.150143
467.003998	56.143333
467.087006	56.134258
467.174011	56.120644
467.440002	56.095676
467.527008	56.088867
467.610992	56.079792
467.694	56.070713
467.781006	56.061638
467.867004	56.054829
467.954987	56.043484
468.036011	56.027596
468.122009	56.013977
468.203003	56.004902
468.43399	56.007172
468.518005	55.993553
468.604004	55.977665
468.687012	55.961781
468.77301	55.950436
468.856995	55.943626
468.938995	55.936817
469.019989	55.927742
469.10199	55.920933
469.187012	55.909588
469.460999	55.884624
469.550995	55.880081
469.638	55.868736
469.718994	55.861927
469.794006	55.852852
469.881012	55.843769
469.976013	55.834694
470.075989	55.825615
470.166992	55.81654
470.247986	55.807461
470.502991	55.784767
470.588989	55.775692
470.673004	55.766613
470.76001	55.75753
470.85199	55.755264
470.937012	55.748455
471.019989	55.73711
471.10199	55.725761
471.188995	55.718956
471.278992	55.716682
471.552002	55.689453
471.636993	55.687183
471.721008	55.680374
471.799988	55.66449
471.871002	55.646332
471.953003	55.637253
472.036987	55.630444
472.131012	55.621368
472.222992	55.614559
472.309998	55.60548
472.536987	55.58506
472.618011	55.582787
472.695007	55.575977
472.774994	55.564632
472.855011	55.551014
472.934998	55.539669
473.006012	55.52832
473.070007	55.512436
473.136993	55.501087
473.210999	55.496548
473.45401	55.485203
473.524994	55.478394
473.593994	55.469318
473.661011	55.45343
473.727997	55.437546
473.796997	55.430737
473.872009	55.423927
473.946991	55.417118
474.022003	55.408043
474.091003	55.396698
474.291992	55.371731
474.363007	55.367191
474.446014	55.360382
474.528992	55.353577
474.609985	55.349037
474.68399	55.337688
474.752014	55.32407
474.824005	55.310459
474.895996	55.299107
474.977997	55.292301
475.242004	55.283222
475.326996	55.271877
475.402008	55.260529
475.475006	55.253723
475.548004	55.24464
475.622986	55.235565
475.709015	55.221947
475.795013	55.208332
475.885986	55.203793
475.967987	55.201527
476.223999	55.17429
476.30899	55.162945
476.395996	55.1516
476.477997	55.144791
476.562988	55.133442
476.649994	55.124363
476.739014	55.122097
476.824005	55.119827
476.911987	55.110744
476.997009	55.09259
477.270996	55.065361
477.356995	55.063087
477.44101	55.065361
477.526001	55.060822
477.617004	55.051743
477.710999	55.044933
477.812988	55.038124
477.914001	55.026779
478.010986	55.017704
478.104004	55.006351
478.382996	54.985931
478.476013	54.979122
478.567993	54.967773
478.660004	54.958694
478.756012	54.949619
478.848999	54.94735
478.932007	54.94054
479.016998	54.926922
479.106995	54.908768
479.203003	54.899693
479.48999	54.89061
479.582001	54.883808
479.673004	54.872456
479.757996	54.865646
479.846008	54.861111
479.94101	54.858841
480.037994	54.854301
480.130005	54.847492
480.226013	54.838417
480.324005	54.831608
480.596008	54.81118
480.677002	54.802105
480.764008	54.786217
480.855011	54.774872
480.953003	54.770332
481.049011	54.770332
481.134003	54.763523
481.221985	54.756714
481.311005	54.745369
481.407013	54.736294
481.687012	54.697712
481.777008	54.686367
481.868988	54.675018
481.962006	54.672749
482.049988	54.665939
482.140991	54.656864
482.229004	54.645512
482.319	54.634167
482.406006	54.625092
482.490997	54.618282
482.72699	54.595589
482.812012	54.58197
482.904999	54.575161
482.992004	54.570625
483.075012	54.563816
483.152008	54.559277
483.230011	54.547928
483.307007	54.541122
483.391998	54.529774
483.47699	54.520695
483.756012	54.50708
483.84201	54.495731
483.924011	54.484386
484	54.475307
484.075989	54.470768
484.154999	54.463959
484.242004	54.454884
484.329987	54.448074
484.415985	54.443539
484.497986	54.438995
484.744995	54.398148
484.825989	54.384529
484.914001	54.375454
484.996002	54.359566
485.087006	54.348221
485.175995	54.343681
485.268005	54.343681
485.356995	54.339142
485.434998	54.330063
485.511993	54.320988
485.759003	54.302834
485.835999	54.296024
485.914001	54.282406
485.992004	54.27787
486.071014	54.273327
486.149994	54.271061
486.229004	54.264252
486.306	54.252903
486.381012	54.246098
486.45401	54.234749
486.681	54.209785
486.757996	54.202976
486.838013	54.193897
486.920013	54.193897
487.002014	54.189358
487.083008	54.180283
487.161987	54.171204
487.237	54.162128
487.313995	54.157585
487.394989	54.14851
487.661011	54.123547
487.75	54.121277
487.830994	54.114468
487.911987	54.114468
487.990997	54.107662
488.075989	54.098583
488.158997	54.082699
488.233002	54.06908
488.321014	54.055462
488.412994	54.046387
488.691986	54.030499
488.78299	54.030499
488.868988	54.032772
488.962006	54.023689
489.059998	54.010078
489.158997	53.99646
489.256989	53.985115
489.35199	53.973763
489.446991	53.966957
489.542999	53.960148
489.82901	53.957878
489.923004	53.957878
490.015015	53.946533
490.102997	53.935184
490.196014	53.921566
490.292999	53.919296
490.394012	53.91703
490.488007	53.910221
490.582001	53.901142
490.677002	53.894333
490.942993	53.862564
491.033997	53.853485
491.127991	53.848946
491.221008	53.842136
491.315002	53.84441
491.406006	53.837601
491.493011	53.833057
491.57901	53.823982
491.664001	53.817173
491.751007	53.808098
492.013	53.780865
492.098999	53.771782
492.18399	53.76498
492.272003	53.755898
492.348999	53.751362
492.437012	53.749092
492.52301	53.746822
492.614014	53.740013
492.703003	53.733208
492.786987	53.719589
493.027008	53.708241
493.105011	53.699162
493.187012	53.690086
493.266998	53.676468
493.346985	53.669659
493.428009	53.660583
493.505005	53.649239
493.57901	53.644695
493.654999	53.637886
493.734985	53.63335
493.993988	53.610657
494.072998	53.597038
494.152008	53.585693
494.231995	53.578884
494.313995	53.578884
494.395996	53.569809
494.47699	53.56073
494.554993	53.551655
494.636993	53.544846
494.714996	53.535763
494.933014	53.497189
495.011993	53.490379
495.089996	53.485836
495.165985	53.4813
495.242004	53.476761
495.319	53.472221
495.397003	53.469952
495.480011	53.467682
495.556	53.456333
495.627991	53.442719
495.851013	53.426834
495.924988	53.420025
496.006989	53.413216
496.091003	53.406406
496.175995	53.401867
496.257996	53.397331
496.337006	53.392792
496.419006	53.388252
496.497009	53.385983
496.574005	53.376904
496.804993	53.340595
496.885986	53.329247
496.97699	53.322437
497.06601	53.317902
497.153992	53.320168
497.237	53.313362
497.316986	53.304283
497.394012	53.288399
497.472992	53.27932
497.552002	53.272511
497.791992	53.267975
497.86499	53.263435
497.945007	53.256626
498.029999	53.249817
498.104004	53.240738
498.187988	53.231663
498.265991	53.224854
498.350006	53.206699
498.433014	53.193081
498.519012	53.181736
498.785004	53.165852
498.869995	53.161308
498.957001	53.154503
499.04599	53.149963
499.135986	53.145424
499.221985	53.138615
499.308014	53.131805
499.395996	53.12273
499.484985	53.113651
499.578003	53.104576
499.768005	53.088688
499.858002	53.079613
499.947998	53.072803
499.992004	53.068264
;

_mpif_aif
;
data_raw2aif
_exptl_operator 'Shun Tokuda'
_exptl_date 2022-10-28T00:00:00
_exptl_instrument 'BELSORP-miniX 1.0.3.0'
_exptl_adsorptive 'N2'
_exptl_temperature 77
_exptl_method 'volumetric'
_adsnt_sample_mass 0.0268
_adsnt_sample_id 'STF387'
_adsnt_material_id 'WaaF-1'
_adsnt_info 'activated by vacuuming at 100degC for 1 h'
_units_temperature 'K'
_units_pressure 'kPa'
_units_mass 'g'
_units_loading 'ml(STP) g-1'
_audit_aif_version d546195

loop_
_adsorp_pressure
_adsorp_p0
_adsorp_amount
-0.0026192 101.33 23.467
0.0026144 101.33 44.367
0.0020444 101.33 65.183
0.0039 101.33 85.378
0.012477 101.33 106.0
0.039349 101.33 125.9
0.085043 101.33 144.2
0.13975 101.33 163.06
0.19659 101.33 181.0
0.3003 101.33 197.45
0.39455 101.33 213.45
0.54498 101.33 227.93
0.68609 101.33 240.93
0.87617 101.33 252.11
1.0726 101.33 261.45
1.2588 101.33 269.13
1.4126 101.33 275.37
1.5313 101.33 280.11
1.6413 101.33 283.83
1.729 101.33 286.69
1.789 101.33 288.95
1.8614 101.33 290.7
1.8942 101.33 291.94
1.9444 101.33 293.25
2.0005 101.33 295.03
2.0503 101.33 295.83
2.677 101.33 308.45
3.2465 101.33 315.95
3.6763 101.33 319.7
3.9268 101.33 321.88
4.0654 101.33 322.83
4.9429 101.33 328.51
5.3878 101.33 330.8
5.5773 101.33 331.8
6.6105 101.33 336.11
6.9906 101.33 337.4
7.0965 101.33 338.07
8.2756 101.33 341.74
8.6791 101.33 342.8
10.301 101.33 346.88
10.669 101.33 347.98
12.193 101.33 350.84
14.232 101.33 354.31
16.31 101.33 357.25
18.171 101.33 359.69
20.213 101.33 362.09
22.275 101.33 364.27
25.285 101.33 366.86
30.578 101.33 370.66
35.43 101.33 373.38
40.511 101.33 375.6
45.664 101.33 377.4
50.822 101.33 378.99
55.875 101.33 380.32
61.017 101.33 381.73
66.162 101.33 382.73
71.157 101.33 383.91
76.525 101.33 385.04
81.562 101.33 385.83
86.716 101.33 386.59
91.754 101.33 387.36
96.828 101.33 388.6
99.862 101.33 389.79

loop_
_desorp_pressure
_desorp_p0
_desorp_amount
96.764 101.33 388.59
90.714 101.33 387.44
80.762 101.33 385.62
75.522 101.33 384.73
65.841 101.33 382.72
55.774 101.33 380.43
45.756 101.33 377.49
35.286 101.33 373.49
22.377 101.33 364.67
18.212 101.33 360.33
14.218 101.33 354.78
10.532 101.33 348.12
7.0984 101.33 338.57
5.1549 101.33 330.44
4.4951 101.33 326.52
4.2301 101.33 324.63
4.0743 101.33 323.45
4.0153 101.33 322.94
;

#Accessary Data
